# This file has been produced by extranormal (v 1.0.1 - February 23, 2017)
# O. Roudenko - Synchrotron SOLEIL. Covered by GPL licence.
#Data from HDF File: /nfs/ruche-rock/rock-soleil/com-rock/2022/Projets/20220725_Gilles/op5_cell4_alone/op5_cell4_pos1_close/op5_cell4_pos1_close_0031/op5_cell4_pos1_close_0031_15254.nxs to op5_cell4_pos1_close_0031_15277.nxs
#Time at start=2022-07-28 15:40:54.530
#Time from start (seconds)=64.700051433
#Sample temperature (C)=nan
# Normalization -------------
# pivot spectrum: LNO_pristine_av1100_00001.txt
# E0=8332.88   Eshift=-0.200000132603
# E0_pivot = 8349.6
# pre-edge params: from E0_pivot-240.0 to E0_pivot-50.0
# pre-edge range: [8109.6, 8299.6]
# post-edge params: from E0_pivot+70.0 to E0_pivot+1155.0
# post-edge range: [8419.6, 9500.0]
# I jump at E0_pivot = 0.79834630547
# shifted energy	normalized	reference	ref.derivative	I0
        8060 0.0006693688     1.042672 -0.0004981306     14940.27
        8065  0.001325766     1.040182 -0.0004931201     14960.34
        8070  0.002019518     1.037743 -0.000458737     14984.53
        8075  0.002556193     1.035671 -0.0004530403     15007.75
        8080  0.002278771     1.033497 -0.0004374397     15029.99
        8085  0.001984136     1.031121 -0.0004548623     15048.52
        8090  0.000527741     1.028994 -0.0004549072     15070.91
        8095 0.0003521371     1.026574 -0.0004464548     15095.33
        8100 6.679234e-05     1.024399 -0.0004561066     15117.08
        8105  0.001212633     1.022192 -0.0004374728     15139.72
        8110 0.0008361954     1.019872 -0.0004278265     15159.38
        8115 0.0004558062     1.017824 -0.0004244045     15178.33
        8120 0.0002888271     1.015842 -0.0004074544     15198.27
        8125 0.0007837197     1.013704 -0.0004096379     15220.26
        8130  0.000402871     1.011723 -0.000416125     15242.53
        8135  0.001016348     1.009632 -0.0004051919     15263.57
        8140 -0.0006622686      1.00752 -0.000420586     15282.15
        8145 -0.001422666       1.0056 -0.0004168602     15304.67
        8150 -0.0005658521     1.003311 -0.0004172849     15321.88
        8155 -0.0005076768     1.001295 -0.0004308179      15344.9
        8160 0.0006777001    0.9991741 -0.0004171902     15363.86
        8165 0.0008592775    0.9969836 -0.0004289394     15392.13
        8170 0.0003389495    0.9949676 -0.0004298008      15409.6
        8175 0.0005159375    0.9927157 -0.000425683     15432.79
        8180 0.0007861997     0.990578 -0.0004306311     15452.67
        8185 0.0002693449    0.9884699 -0.0004159412     15472.19
        8190 0.0005980945     0.986355 -0.000413181     15495.05
        8195 -0.001403845    0.9843969 -0.0004113365     15517.04
        8200 -0.0006666863    0.9823144 -0.0004113177     15533.06
        8205 -0.001708343    0.9802432 -0.0004152659     15557.26
        8210 -0.0007400537    0.9781286 -0.000416782     15573.41
        8215  -0.00135841    0.9760916 -0.0004071058     15594.94
        8220 -0.0008021264    0.9739788 -0.0003990053     15618.21
        8225 -0.0007786833    0.9721011 -0.0004062356     15639.21
        8230 -0.0001836723    0.9701485 -0.0003915639     15660.15
        8235 -0.0008725878    0.9679669 -0.0003996953     15677.08
        8240 -0.0009280293    0.9661475 -0.0003929787     15698.94
        8245 7.228756e-05    0.9641072 -0.0003786547     15720.69
        8250 0.0003752614     0.962289 -0.0003746214      15738.9
        8255  0.001011886    0.9603938 -0.0003615945     15756.63
        8260 -4.06266e-05    0.9586551 -0.0003564732     15778.06
        8265 0.0002543016    0.9568753 -0.0003470053      15797.6
        8270 9.939499e-05    0.9551595 -0.0003454057     15819.21
        8275 2.857518e-05    0.9534537 -0.0003367773     15835.32
        8280 -0.0002244693     0.951747 -0.0003285876     15854.32
        8285  0.001053131    0.9501397 -0.000313398     15866.84
        8290 0.0008845789    0.9485877 -0.0002950259     15879.46
        8295  0.001328254    0.9471857 -0.0002807781      15890.5
        8300  0.002571688    0.9459149 -0.0002030979     15820.03
      8300.2  0.002664918     0.946042 0.0002550749      15809.6
      8300.4  0.002498586    0.9461019 0.0001362374     15799.31
      8300.6  0.002434728    0.9461041 -3.466251e-05      15791.6
      8300.8  0.002333669    0.9460238 -5.041263e-05     15786.06
        8301   0.00222552    0.9460142 -0.0002432749     15781.55
      8301.2   0.00212322    0.9460616 -0.0001288002     15778.67
      8301.4  0.002082811    0.9459094 -0.0003650376     15777.11
      8301.6  0.001958378    0.9459208 -0.0005324125     15775.98
      8301.8  0.001943084    0.9457222 -0.0005203752     15775.37
        8302  0.001941117    0.9456357   -0.0007486      15774.5
      8302.2  0.001945889    0.9454931 -0.0007349875     15774.51
      8302.4  0.002050993    0.9453219 -0.0007666624     15773.84
      8302.6   0.00200749    0.9451342 -0.0006808998     15771.74
      8302.8  0.002150372    0.9450223 -0.0004476624     15770.34
        8303   0.00217357    0.9449484 -0.0002407998     15766.63
      8303.2  0.002260561    0.9449638 9.613752e-05     15762.49
      8303.4  0.002313382    0.9449416 0.0001258125     15756.97
      8303.6  0.002350596    0.9450992   0.00012875     15749.34
      8303.8  0.002576438    0.9450491 0.0001765623     15739.67
        8304  0.002783666    0.9450668 -6.761251e-05      15727.4
      8304.2   0.00307399    0.9450828 -8.658759e-05     15711.66
      8304.4   0.00346352    0.9450452 -0.0002262627     15690.38
      8304.6  0.003848365    0.9449798 -0.0004999375     15662.44
      8304.8  0.004427624    0.9448858 -0.0005504377     15627.05
        8305  0.004993419    0.9446829 -0.0008541874     15578.98
      8305.2  0.005677795    0.9446048 -0.0006392499     15519.56
      8305.4  0.006314273    0.9442965 -0.0004421498     15448.31
      8305.6  0.006726587    0.9443744 -0.0001361121     15368.56
      8305.8  0.006888646    0.9443292 0.0004897625     15289.92
        8306  0.006749545    0.9444959 0.0004350502     15217.06
      8306.2  0.006329464    0.9446883 0.0007214875     15158.66
      8306.4  0.005712475    0.9447224 0.0007845874     15118.13
      8306.6  0.005001518    0.9449064    0.0006779     15098.53
      8306.8  0.004303336    0.9451236 0.0006433999     15101.25
        8307   0.00378261    0.9452306 0.0004387623     15124.13
      8307.2   0.00341317    0.9452371 0.0001200124     15160.33
      8307.4  0.003188831    0.9452574 4.205017e-05     15204.85
      8307.6   0.00303465    0.9452196 0.0002964627     15257.49
      8307.8  0.002898255    0.9452642 0.0005657625     15313.65
        8308  0.002739939    0.9454743 0.0005839875     15371.88
      8308.2   0.00260526      0.94571 0.0005629623     15431.94
      8308.4  0.002408353    0.9456868 0.0003310622     15493.66
      8308.6  0.002288204    0.9457146 -0.0001026126     15558.17
      8308.8  0.002348015    0.9457392 -0.0002275252     15621.91
        8309  0.002676318    0.9456279 -0.0004657252     15680.56
      8309.2  0.003159729    0.9455048 -0.000795525     15729.72
      8309.4  0.003704542     0.945342 -0.0008611999     15768.38
      8309.6  0.004357792    0.9451027 -0.0007105498     15794.79
      8309.8  0.004886221    0.9449389 -0.0004725747     15805.38
        8310  0.005321057    0.9449363 -5.789993e-05     15805.75
      8310.2  0.005509471     0.944964 4.972504e-05     15799.41
      8310.4  0.005573064    0.9450564  0.000110375     15792.04
      8310.6  0.005640002    0.9449787 0.0001467373     15786.46
      8310.8  0.005551418    0.9450246   -0.0002174     15783.83
        8311  0.005380377    0.9450813 -0.0002627251     15785.95
      8311.2  0.005374364    0.9448825 -0.0004484376      15792.8
      8311.4  0.005799042    0.9447685 -0.0005809249     15800.73
      8311.6  0.006380856    0.9446659 -0.0003695123        15803
      8311.8  0.006772014    0.9446166 -0.0001204373     15794.49
        8312  0.007127874    0.9445869 0.0001964627      15781.9
      8312.2  0.007438052    0.9446722 0.0004918126     15768.19
      8312.4  0.007482068    0.9448231 0.0006028749     15753.68
      8312.6  0.007444539    0.9450101 0.0004411623     15742.11
      8312.8  0.007395788    0.9450692 8.522482e-05     15733.46
        8313  0.007484697    0.9450251 -0.0001849502     15727.18
      8313.2  0.008008329    0.9448912 -0.0005070877     15717.13
      8313.4  0.008607367    0.9448621 -0.0007517625     15693.72
      8313.6  0.009391199    0.9446635  -0.00080805     15656.42
      8313.8   0.01033273    0.9444237 -0.0008221998      15599.5
        8314   0.01098557    0.9442448 -0.0004452872     15524.62
      8314.2   0.01145715    0.9442043 7.891285e-05     15440.99
      8314.4   0.01153232    0.9443073 0.0006115503      15354.1
      8314.6   0.01118068    0.9444868   0.00113005     15276.27
      8314.8    0.0106832     0.944734  0.001311188     15215.13
        8315  0.009794841    0.9451084   0.00158485     15172.97
      8315.2   0.00889141    0.9453562  0.001541075     15157.08
      8315.4   0.00801203    0.9457547  0.001290375     15165.82
      8315.6  0.007351652    0.9459669  0.001035875     15191.32
      8315.8  0.007015331    0.9461407 0.0005373748     15229.69
        8316  0.006866748    0.9461849  0.000258725     15273.11
      8316.2  0.006855575    0.9461846 0.0002995252     15317.35
      8316.4  0.006740386    0.9461739 0.0005421627     15360.42
      8316.6  0.006548188    0.9463803    0.0008726     15402.75
      8316.8  0.006335648    0.9466187 0.0008831999      15445.7
        8317  0.006240915    0.9468827 0.0006728748     15489.91
      8317.2  0.006193366    0.9468804 0.0004200372     15533.45
      8317.4  0.006155775    0.9469186 -3.586242e-05     15576.69
      8317.6  0.006148572    0.9469547 7.911248e-05     15620.13
      8317.8  0.006183018     0.946854 4.211242e-05     15662.84
        8318  0.006308552    0.9469437 -7.124976e-05     15702.83
      8318.2  0.006516105    0.9469523 0.0002978124     15738.19
      8318.4  0.006720678    0.9468977 0.0002204501     15768.67
      8318.6   0.00691171    0.9470922 0.0003165126      15794.4
      8318.8  0.007166836    0.9471201  0.000445775     15816.58
        8319  0.007291005    0.9472055 0.0004735625     15834.62
      8319.2  0.007454881    0.9472543 0.0005141251     15849.87
      8319.4  0.007516683    0.9474711 0.0006156375      15862.1
      8319.6  0.007682275    0.9475314 0.0006325375     15873.26
      8319.8  0.007702453     0.947698 0.0006048876      15882.6
        8320  0.007821674    0.9477604 0.0007370251      15891.3
      8320.2  0.007901727     0.947955 0.0008745625     15899.84
      8320.4  0.007979136     0.948121   0.00094055      15906.8
      8320.6  0.008082725    0.9483977 0.0009255626     15913.18
      8320.8  0.008043844    0.9485128  0.001009788     15918.49
        8321  0.008114301    0.9486955  0.001113488      15923.9
      8321.2  0.008109604    0.9489288  0.001273625     15928.56
      8321.4  0.008107712    0.9492884    0.0012674     15933.58
      8321.6   0.00820981    0.9495317  0.001237212     15938.67
      8321.8   0.00836389    0.9497094  0.001040975     15944.04
        8322  0.008499432    0.9499186 0.0009679877     15949.49
      8322.2  0.008559218    0.9501212    0.0012493     15953.79
      8322.4  0.008681032    0.9503061  0.001393838     15958.96
      8322.6  0.008772558    0.9507088  0.001440963     15964.79
      8322.8  0.009023626    0.9510337  0.001567762     15971.62
        8323  0.009259488     0.951274  0.001510637     15978.91
      8323.2  0.009399314    0.9515603  0.001489288     15986.19
      8323.4  0.009498118    0.9519173  0.001738813     15993.57
      8323.6  0.009581916    0.9522251  0.001911112     16001.15
      8323.8  0.009677162     0.952665  0.001899125      16008.5
        8324  0.009769239    0.9530892  0.002028412     16015.68
      8324.2  0.009995983    0.9534366    0.0019451     16022.07
      8324.4   0.01015844    0.9538478  0.002062388     16027.62
      8324.6   0.01024032    0.9542211    0.0021969     16032.27
      8324.8   0.01029812    0.9547391  0.002471725     16035.42
        8325   0.01035803    0.9551941    0.0025052     16038.21
      8325.2   0.01035705    0.9558252  0.002767663     16039.96
      8325.4    0.0106412    0.9562253  0.003050737     16042.49
      8325.6   0.01061512    0.9569532  0.002986013     16043.75
      8325.8   0.01076568    0.9576347  0.003432825     16045.48
        8326   0.01085235     0.958214  0.003613688     16046.37
      8326.2   0.01103699    0.9589715   0.00388265     16047.85
      8326.4   0.01125023    0.9598442   0.00431895     16049.28
      8326.6   0.01126938    0.9607409    0.0044777     16049.69
      8326.8   0.01161967    0.9616692  0.004660138     16052.23
        8327   0.01175195    0.9625537  0.004985575     16052.65
      8327.2   0.01190571    0.9635723    0.0050056     16053.45
      8327.4   0.01207655    0.9647293  0.005279425     16054.62
      8327.6   0.01244403    0.9656737  0.005650938     16056.19
      8327.8   0.01260859    0.9667772  0.005987188     16056.71
        8328   0.01285444     0.968093  0.006728276     16057.49
      8328.2   0.01307028    0.9695191  0.007512338     16058.55
      8328.4   0.01328006    0.9710563  0.008070588     16059.61
      8328.6   0.01342729    0.9727871  0.008633638     16060.18
      8328.8   0.01357653    0.9745495  0.009304163     16060.47
        8329   0.01386164     0.976426      0.01032     16061.43
      8329.2   0.01418351    0.9784996   0.01150366     16062.33
      8329.4   0.01447545    0.9810431    0.0129228     16063.62
      8329.6   0.01484429    0.9837524   0.01463154     16065.12
      8329.8   0.01518645    0.9867642   0.01657875     16066.22
        8330   0.01541952    0.9902048   0.01928888     16066.59
      8330.2   0.01577079    0.9943061   0.02266603     16067.91
      8330.4   0.01615203    0.9991835   0.02648269     16068.69
      8330.6   0.01646217     1.004897   0.03113434     16069.33
      8330.8   0.01690416     1.011391   0.03729802     16070.41
        8331   0.01734067     1.019214   0.04492414     16070.62
      8331.2   0.01789112     1.029022   0.05471785     16071.28
      8331.4   0.01859395     1.040836   0.06644168     16072.36
      8331.6   0.01934736     1.055165   0.07905701     16073.13
      8331.8   0.02026302     1.072367   0.09252076     16073.63
        8332   0.02123758     1.092268    0.1062506     16073.84
      8332.2   0.02243688     1.114853    0.1188302     16073.38
      8332.4   0.02392132     1.140166     0.130001     16074.08
      8332.6   0.02559313     1.167431    0.1385216     16074.09
      8332.8   0.02762977     1.196268    0.1443229     16074.21
        8333   0.02985016      1.22567    0.1476162     16074.21
      8333.2   0.03240184     1.255624    0.1481951     16074.58
      8333.4   0.03507273     1.285524    0.1461735     16074.24
      8333.6   0.03777427     1.314824    0.1430208     16073.55
      8333.8   0.04066888     1.342609    0.1389094     16073.46
        8334   0.04353328     1.370041     0.133596     16073.21
      8334.2   0.04624133     1.396652    0.1279584      16073.1
      8334.4   0.04873393     1.421701     0.120443     16073.64
      8334.6   0.05052949     1.444976    0.1116274      16072.5
      8334.8   0.05212737     1.466395    0.1027321      16072.7
        8335   0.05307453     1.485953   0.09416516     16072.37
      8335.2   0.05351662     1.503887   0.08627499      16072.5
      8335.4   0.05366922     1.520308   0.07789904      16073.2
      8335.6    0.0534795     1.535415    0.0700929     16073.47
      8335.8   0.05312582     1.548273   0.06261201     16073.31
        8336   0.05296747     1.559961   0.05604687     16074.13
      8336.2   0.05287302     1.570397   0.05151415     16074.74
      8336.4   0.05288526     1.580253   0.04771721     16075.95
      8336.6      0.05296     1.589484   0.04467354     16076.28
      8336.8   0.05339782     1.598135    0.0422733     16077.45
        8337   0.05399766     1.606136    0.0409239     16078.71
      8337.2   0.05480702     1.614071    0.0408594     16079.53
      8337.4   0.05580249     1.622223    0.0420913      16080.5
      8337.6   0.05702006     1.630823   0.04449653      16081.9
      8337.8   0.05842176     1.639809   0.04747319     16083.72
        8338   0.05991793     1.649668   0.05107104     16084.85
      8338.2   0.06159144     1.660202   0.05476768     16086.22
      8338.4   0.06333503     1.671679   0.05820664     16087.39
      8338.6   0.06535945     1.683623   0.06110945     16088.24
      8338.8   0.06764382     1.696234   0.06301524     16089.67
        8339   0.06998757     1.709089    0.0645345     16090.32
      8339.2   0.07260142     1.722092   0.06509334     16091.43
      8339.4   0.07538079     1.735251   0.06467509     16092.03
      8339.6   0.07834231     1.748308   0.06338546     16092.02
      8339.8   0.08175238     1.760829   0.06153301     16093.32
        8340   0.08526507       1.7728   0.05979465     16093.73
      8340.2   0.08904798     1.784477    0.0584844     16093.75
      8340.4   0.09340686     1.796144   0.05792212     16094.75
      8340.6   0.09826543     1.807617   0.05689155     16094.71
      8340.8    0.1036097     1.819138   0.05645859     16095.58
        8341    0.1092362     1.829991   0.05699658     16095.79
      8341.2    0.1156065     1.841311   0.05850151     16096.37
      8341.4    0.1228397     1.853214   0.06169818     16097.36
      8341.6    0.1308365     1.865939   0.06528489     16097.56
      8341.8    0.1399299     1.879349   0.06900103     16097.74
        8342    0.1500582     1.893539   0.07236364     16098.97
      8342.2    0.1607991     1.908415   0.07743355     16099.68
      8342.4    0.1726111      1.92383   0.08258599     16100.43
      8342.6    0.1860693     1.941296   0.08820344     16101.01
      8342.8    0.2003729     1.959608   0.09413854     16101.51
        8343    0.2157502     1.978978    0.0983682     16102.92
      8343.2    0.2317835     1.999141    0.1026008     16102.94
      8343.4    0.2489513     2.019991    0.1062506     16104.46
      8343.6    0.2665639     2.041688     0.110125     16104.97
      8343.8    0.2847743     2.063978     0.113906     16105.53
        8344    0.3034391     2.087241    0.1166767     16105.42
      8344.2     0.322556     2.111115    0.1200252     16105.64
      8344.4    0.3421596      2.13503    0.1225053     16105.79
      8344.6    0.3623615     2.159998    0.1248283     16105.51
      8344.8    0.3828503     2.185245    0.1269764     16106.25
        8345    0.4035475     2.210978    0.1285835     16106.54
      8345.2    0.4244804     2.236611    0.1305868     16106.35
      8345.4    0.4461224     2.262865    0.1325907     16107.66
      8345.6    0.4683887     2.289714    0.1339947     16108.67
      8345.8    0.4912722     2.317051    0.1340933     16109.99
        8346     0.514078     2.343807    0.1334241     16110.79
      8346.2    0.5369147      2.37014    0.1322253     16111.99
      8346.4     0.559921     2.396454    0.1313088     16113.59
      8346.6    0.5838872     2.422831    0.1298831     16114.71
      8346.8    0.6082493     2.448854    0.1264218     16115.64
        8347    0.6330398     2.474046     0.121229      16116.2
      8347.2    0.6571514     2.497591    0.1147192     16116.61
      8347.4     0.681552     2.519814    0.1090355     16116.75
      8347.6     0.706386     2.540629      0.10241     16118.06
      8347.8     0.732393     2.561275   0.09557049     16118.76
        8348    0.7582394     2.579519   0.08673712     16119.31
      8348.2    0.7841535      2.59627   0.07721502     16119.46
      8348.4    0.8098749     2.610019   0.06776238     16120.13
      8348.6    0.8350602     2.623047   0.05860889     16119.81
      8348.8    0.8608955     2.633729   0.05092509     16119.09
        8349    0.8872403     2.643158   0.04159184     16119.91
      8349.2    0.9131005     2.650759   0.03339851     16120.09
      8349.4    0.9386889      2.65632   0.02676768     16119.03
      8349.6    0.9645407     2.660448   0.01969282     16118.61
      8349.8    0.9905509     2.664572   0.01443048      16117.9
        8350     1.016572     2.666513  0.009738447     16118.38
      8350.2     1.042704     2.667864  0.004963672     16118.36
      8350.4     1.069049     2.668238  0.001120635     16118.57
      8350.6     1.095979     2.668543 -0.002723227     16118.31
      8350.8     1.123575     2.667409 -0.005465015     16118.87
        8351     1.151573     2.665686 -0.009812352      16118.9
      8351.2     1.179572     2.663866  -0.01231281     16119.71
      8351.4     1.207507     2.660693  -0.01382811     16120.17
      8351.6     1.235459     2.657559  -0.01501279     16120.63
      8351.8     1.264565     2.654623  -0.01516644     16120.71
        8352     1.294236     2.651856  -0.01459349     16121.03
      8352.2     1.323344      2.64856  -0.01431564     16121.21
      8352.4     1.352284     2.645884  -0.01464199     16121.13
      8352.6     1.380018     2.643171  -0.01451132     16121.26
      8352.8     1.408442     2.640143  -0.01328822     16121.07
        8353     1.436726     2.636951  -0.01124606     16121.58
      8353.2     1.464155     2.635254 -0.007928935     16121.35
      8353.4     1.489085     2.634174 -0.004050547      16122.2
      8353.6     1.511667     2.633799 -1.222206e-05     16122.33
      8353.8      1.53132      2.63371   0.00442034     16122.62
        8354     1.547831     2.635244  0.008536416     16123.26
      8354.2     1.560009      2.63771   0.01415672     16123.81
      8354.4      1.56787     2.640629   0.01916685     16124.69
      8354.6     1.570332     2.645035   0.02348233     16125.41
      8354.8     1.567343     2.650578   0.02803212     16126.23
        8355     1.559716     2.656496   0.03257965     16127.03
      8355.2     1.547087     2.663054   0.03583666     16127.61
      8355.4     1.530092     2.671099    0.0381889     16128.74
      8355.6      1.50959     2.679247    0.0417201     16129.88
      8355.8     1.486187     2.687047   0.04233704     16130.53
        8356     1.459358      2.69643   0.04365522     16131.44
      8356.2     1.431347     2.704969   0.04276112     16132.06
      8356.4     1.402496     2.714171   0.03980672     16132.26
      8356.6     1.373405     2.721256   0.03777355     16133.64
      8356.8     1.343968     2.728276   0.03279994     16134.86
        8357     1.314865     2.735188   0.03056172     16135.93
      8357.2     1.286485     2.740411   0.02642338     16136.94
      8357.4     1.260563     2.745706   0.02132052     16137.62
      8357.6     1.235835     2.749414   0.01645553     16138.33
      8357.8      1.21343     2.752244    0.0105009     16139.13
        8358     1.191754     2.753575   0.00574376      16139.9
      8358.2     1.171961     2.754106  0.001404547     16140.72
      8358.4     1.153959     2.754009  -0.00261934     16141.39
      8358.6     1.138256     2.753368 -0.006592077     16141.89
      8358.8     1.124177      2.75148 -0.009934753     16143.01
        8359     1.111305     2.748833  -0.01481203     16143.57
      8359.2     1.099802     2.746062  -0.01778858     16144.71
      8359.4     1.089635     2.741518  -0.02007621     16145.29
      8359.6     1.080869     2.737249   -0.0223855     16145.81
      8359.8     1.073268     2.732772  -0.02196271     16146.05
        8360     1.066707     2.728153   -0.0221756     16146.44
      8360.2     1.060964     2.723948  -0.02168662      16147.7
      8360.4     1.055906     2.719509  -0.02130145     16148.36
      8360.6     1.051505     2.715422  -0.02139919     16149.37
      8360.8     1.047907     2.711112  -0.01958239      16150.8
        8361     1.044482     2.706829  -0.01978535     16150.63
      8361.2     1.041588     2.703843  -0.01885887     16151.18
      8361.4     1.038859     2.699594  -0.01772516     16152.48
      8361.6     1.036369     2.696025  -0.01842395      16153.4
      8361.8     1.034129     2.692648  -0.01746134     16154.77
        8362     1.032035     2.689104  -0.01735324     16155.31
      8362.2     1.029973     2.685625  -0.01700296     16156.12
      8362.4     1.028129     2.682142  -0.01723579     16157.06
      8362.6     1.026261     2.679046  -0.01744321     16157.24
      8362.8      1.02449     2.675315  -0.01760074      16158.9
        8363     1.022724      2.67167  -0.01930636      16159.7
      8363.2     1.020942     2.668062  -0.01968029     16160.95
      8363.4     1.019193     2.663601  -0.02135319     16162.12
      8363.6     1.017514     2.659571  -0.02229941     16163.06
      8363.8     1.015982     2.654588  -0.02311351      16163.8
        8364     1.014427     2.650222  -0.02447374     16164.83
      8364.2     1.013003      2.64511  -0.02469161     16165.94
      8364.4     1.011712     2.639992  -0.02478432     16166.81
      8364.6     1.010576     2.634835  -0.02447539     16168.27
      8364.8     1.009519     2.630395  -0.02358846     16168.82
        8365      1.00879      2.62553   -0.0231854     16169.96
      8365.2     1.008403     2.621121    -0.022663     16171.46
      8365.4     1.008214     2.616286  -0.02174347     16171.82
      8365.6     1.008431     2.612264  -0.02029485     16172.86
      8365.8      1.00898     2.608135  -0.01790744     16174.23
        8366     1.009817     2.604885   -0.0171322     16175.29
      8366.2     1.010988      2.60196   -0.0150104     16176.06
      8366.4     1.012486     2.598559  -0.01390167      16176.9
      8366.6     1.014271     2.596127  -0.01236937      16178.3
      8366.8     1.016379     2.593764  -0.01033535     16179.42
        8367     1.018787     2.592065  -0.00916895     16180.03
      8367.2     1.021306      2.59029 -0.008569525     16181.06
      8367.4     1.024099     2.588792 -0.009072287        16182
      8367.6     1.027035     2.586908 -0.007897262     16183.33
      8367.8     1.030024     2.584807 -0.006606574     16184.63
        8368     1.032974     2.583973 -0.005279211     16185.94
      8368.2     1.035926     2.583506   -0.0036097     16187.07
      8368.4     1.038866     2.582685 -0.003936188      16188.3
      8368.6      1.04153     2.581919 -0.004176075     16188.79
      8368.8     1.043999     2.580824 -0.003711275     16189.88
        8369     1.046147     2.580165 -0.003515862     16191.36
      8369.2     1.047845     2.579716 -0.002477237     16191.55
      8369.4     1.049156     2.579106 -0.002231925     16192.77
      8369.6     1.050071     2.578842 -0.001480049     16193.63
      8369.8     1.050362      2.57838 -0.0004014746     16194.43
        8370      1.05032     2.578532 0.0001636385      16195.4
      8370.2     1.049778     2.578785  0.001731051     16196.46
      8370.4     1.048794     2.578973  0.002735488     16197.26
      8370.6     1.047319     2.579765  0.003638926     16198.66
      8370.8     1.045142      2.58072    0.0055453     16199.14
        8371     1.042706     2.581696  0.005699163     16199.21
      8371.2     1.040128     2.583409  0.006710977     16200.06
      8371.4     1.037143     2.584324  0.009078225     16201.13
      8371.6     1.034011     2.586089  0.009060739     16202.55
      8371.8     1.030464     2.588959   0.01176288     16203.24
        8372     1.026859     2.590658   0.01317759     16204.59
      8372.2     1.023151     2.593734   0.01387395     16205.36
      8372.4     1.019217     2.596631   0.01495721     16205.45
      8372.6     1.015133     2.600058   0.01504601     16206.45
      8372.8     1.010909     2.602623   0.01595334     16207.09
        8373     1.006605     2.605771   0.01699855     16207.42
      8373.2     1.002166     2.609394   0.01850631      16208.2
      8373.4    0.9976915     2.613657    0.0197623     16208.72
      8373.6    0.9930614     2.617428   0.02046476     16209.23
      8373.8    0.9882872     2.621581   0.02079565     16210.03
        8374    0.9834678     2.625765    0.0218011     16210.18
      8374.2    0.9786205     2.630294   0.02327651     16210.92
      8374.4    0.9736244     2.634869   0.02394071     16211.33
      8374.6    0.9685495     2.640202   0.02478043      16212.6
      8374.8    0.9631795     2.644918   0.02533975     16213.27
        8375    0.9576791     2.650118   0.02486758     16213.53
      8375.2    0.9523731     2.655141   0.02566146     16213.87
      8375.4    0.9470429     2.660096    0.0262825     16214.57
      8375.6    0.9416105     2.665447   0.02713399     16214.81
      8375.8    0.9359465     2.671144   0.02776214     16215.26
        8376    0.9303028     2.676848   0.02735354     16216.73
      8376.2    0.9247425     2.682306   0.02718113     16217.18
      8376.4    0.9193352      2.68733   0.02853974     16218.07
      8376.6    0.9140133     2.692889   0.02969796     16219.23
      8376.8    0.9085208      2.69968   0.03067981     16219.86
        8377    0.9032074     2.706064    0.0308427     16221.47
      8377.2    0.8978843     2.711874   0.03024475     16222.39
      8377.4    0.8929984     2.717563   0.02934925     16223.82
      8377.6     0.888071     2.723876   0.03039918     16224.23
      8377.8    0.8834996     2.729544   0.03095814     16225.36
        8378    0.8789876     2.736193   0.03036582     16225.51
      8378.2    0.8748405     2.742329   0.03004695     16226.43
      8378.4    0.8708089     2.748169   0.02852725      16226.8
      8378.6    0.8668824     2.753581   0.02856962     16227.26
      8378.8     0.863248     2.759015   0.02805098     16228.04
        8379    0.8594961     2.765185   0.02855092      16228.4
      8379.2    0.8559849     2.770609   0.02766759     16229.29
      8379.4    0.8526923     2.776422   0.02659531     16229.84
      8379.6    0.8495714     2.781149   0.02558354     16231.11
      8379.8    0.8464581     2.786461   0.02446741     16232.09
        8380    0.8434377     2.791076   0.02383606     16233.37
      8380.2    0.8405232     2.795996   0.02311119     16233.64
      8380.4    0.8378585     2.800218   0.02201647     16235.26
      8380.6    0.8353077      2.80495   0.01993344     16235.77
      8380.8    0.8328014     2.808689   0.01866355     16236.83
        8381    0.8304442     2.811943   0.01580814     16237.67
      8381.2    0.8280327     2.815149   0.01392564     16237.62
      8381.4    0.8260122     2.817597   0.01293901      16238.5
      8381.6      0.82408      2.81983   0.01052836     16239.46
      8381.8       0.8223     2.822294  0.008603286     16240.74
        8382    0.8203935     2.823571  0.005964599     16240.61
      8382.2     0.818687      2.82448  0.004011074     16241.56
      8382.4    0.8170207     2.824601  0.002601136     16242.14
      8382.6    0.8155364     2.825503 -7.385024e-05     16243.55
      8382.8    0.8142178     2.825652 -0.0004350394     16244.34
        8383    0.8129378      2.82442 -0.003363376     16245.29
      8383.2    0.8118345     2.824253 -0.005498188        16246
      8383.4    0.8107559     2.822812 -0.006440214        16247
      8383.6     0.809744     2.821254 -0.009022538     16247.98
      8383.8    0.8089776     2.819268  -0.01045625     16248.94
        8384    0.8081988     2.817035  -0.01276684     16249.45
      8384.2    0.8076424     2.814447  -0.01396421     16250.47
      8384.4    0.8071726      2.81104  -0.01497654      16251.2
      8384.6    0.8068429     2.808097  -0.01629648     16251.59
      8384.8    0.8066257     2.805054  -0.01712356     16252.48
        8385    0.8064852      2.80141  -0.01833339     16253.08
      8385.2    0.8064624     2.797341  -0.02000278     16254.24
      8385.4    0.8064283      2.79343  -0.02119528     16253.95
      8385.6     0.806647     2.789052  -0.02277978     16254.74
      8385.8    0.8068797     2.784454  -0.02441474     16255.08
        8386    0.8072589     2.779118  -0.02710525     16255.76
      8386.2    0.8077518     2.773898  -0.02740693     16256.51
      8386.4    0.8082855     2.767368  -0.02765233     16257.53
      8386.6    0.8089713     2.762528  -0.02798867     16258.33
      8386.8    0.8097789     2.756996  -0.02777714     16258.98
        8387    0.8105892     2.751507  -0.02986833     16259.56
      8387.2    0.8115329     2.745146   -0.0309607     16260.19
      8387.4    0.8127969     2.738634  -0.03257335     16261.17
      8387.6    0.8140794     2.732227  -0.03146269      16261.8
      8387.8    0.8153149     2.725449  -0.03125537      16262.3
        8388    0.8167683     2.719976  -0.03050469     16263.31
      8388.2     0.818196     2.713629   -0.0298142     16264.19
      8388.4    0.8196899     2.707823  -0.03037396     16264.67
      8388.6    0.8214624     2.701597  -0.02946221     16265.95
      8388.8    0.8231549     2.695677  -0.03000786     16266.46
        8389    0.8249629     2.690059  -0.02895616     16267.41
      8389.2    0.8268338     2.683817  -0.02793354     16268.06
      8389.4    0.8286544     2.678432  -0.02764641     16268.36
      8389.6    0.8306083      2.67333  -0.02589202     16269.01
      8389.8    0.8325299     2.667942  -0.02583066     16269.05
        8390    0.8345762     2.663104  -0.02575229     16269.85
      8390.2    0.8366418     2.657768  -0.02456119     16269.85
      8390.4    0.8386644     2.652728  -0.02422884     16269.78
      8390.6    0.8409616     2.648293  -0.02378174     16270.31
      8390.8     0.843206      2.64372  -0.02266978     16270.89
        8391    0.8452523     2.638743  -0.02290105      16271.5
      8391.2    0.8475293     2.634592   -0.0221103     16272.49
      8391.4    0.8498097     2.629973  -0.02128752     16273.24
      8391.6    0.8522358     2.626032  -0.02095097     16274.37
      8391.8     0.854539     2.621713  -0.01978081     16274.34
        8392    0.8568081     2.617831  -0.01925901     16274.58
      8392.2    0.8591223     2.614148  -0.01894766     16275.14
      8392.4    0.8616307     2.610625  -0.01904435     16275.63
      8392.6    0.8643075     2.606554  -0.01847275     16276.55
      8392.8    0.8669333     2.602596  -0.01790931     16277.26
        8393    0.8694961      2.59937  -0.01675554     16278.28
      8393.2    0.8720752     2.596298  -0.01499033     16279.17
      8393.4    0.8747566      2.59315  -0.01520667     16279.91
      8393.6    0.8775178     2.590604  -0.01418696     16280.91
      8393.8     0.880384     2.587204  -0.01321452     16282.12
        8394     0.883188     2.584948  -0.01251471     16282.79
      8394.2    0.8860648     2.582578  -0.01116797     16283.49
      8394.4    0.8888545     2.580592  -0.01028454     16284.29
      8394.6    0.8918355      2.57827 -0.009515787     16284.87
      8394.8    0.8947217      2.57672 -0.008334699     16285.37
        8395    0.8975517     2.574966 -0.007084625     16285.41
      8395.2    0.9004061     2.573924 -0.006886561     16285.78
      8395.4    0.9033114     2.572602   -0.0048271     16286.43
      8395.6    0.9063395     2.571211 -0.004693499     16287.11
      8395.8     0.909342     2.571104 -0.003739611     16288.17
        8396    0.9123619     2.570169 -0.001914063     16289.21
      8396.2    0.9154463     2.569611 -0.002286837     16289.85
      8396.4    0.9185362      2.56968 -0.001968462     16290.28
      8396.6     0.921864     2.569275  -0.00121405     16292.07
      8396.8     0.925056     2.568595 -0.001433812     16293.26
        8397    0.9282297     2.568639 -0.001099674     16293.86
      8397.2    0.9315308     2.568533   0.00013235     16294.07
      8397.4    0.9347384     2.568395 8.905017e-05     16294.27
      8397.6    0.9381674     2.568701 0.0003413003     16295.14
      8397.8     0.941669     2.568711 0.0008328495     16295.94
        8398    0.9449924     2.568806  9.05999e-05     16296.44
      8398.2    0.9481602     2.569061 -6.272522e-05      16296.3
      8398.4    0.9514898     2.568773 -0.0003935127     16297.37
      8398.6    0.9547675      2.56866 -0.0007640122     16297.44
      8398.8    0.9581256     2.568491 -0.0002592004     16298.09
        8399    0.9613418      2.56845 -0.0008027751     16298.12
      8399.2     0.964605     2.568566 -0.0009496126     16298.99
      8399.4    0.9677925     2.568018 -0.001124863     16299.85
      8399.6    0.9708244     2.567731 -0.002627019     16300.49
      8399.8    0.9739253      2.56755 -0.002741538     16300.96
        8400    0.9768723     2.566912 -0.002806362     16301.72
        8401    0.9912708     2.563778 -0.003060721     16305.33
        8402     1.004402     2.560735 -0.002826084     16308.17
        8403      1.01802     2.557414 -0.001673598     16310.89
        8404     1.032423     2.555608 -5.68122e-05     16315.03
        8405     1.047272     2.557083  0.002240353     16319.38
        8406     1.062019     2.560508   0.00461229     16323.92
        8407     1.075415     2.566376  0.006045147     16328.42
        8408     1.086687     2.574057  0.006939289     16333.21
        8409     1.095179     2.581264  0.006869356     16337.97
        8410     1.100831     2.588265  0.006385072     16342.64
        8411     1.102891     2.593853  0.006197969     16346.17
        8412     1.101904     2.599598  0.006499763     16350.11
        8413     1.098417     2.606056  0.007442571     16354.72
        8414      1.09252     2.614264  0.008781863     16359.51
        8415     1.085714     2.623623    0.0100974     16363.92
        8416     1.078744     2.634725   0.01084245     16367.43
        8417     1.072178     2.646445    0.0112801      16372.3
        8418     1.065525     2.657634    0.0111091     16377.72
        8419     1.058699     2.668744   0.01072642     16382.11
        8420     1.051586     2.679161    0.0105417     16384.86
        8421     1.044147     2.689351   0.01087381     16388.59
        8422     1.036906     2.699801   0.01164899     16392.55
        8423     1.029476     2.712239   0.01246063     16395.01
        8424      1.02252     2.725757    0.0134264     16397.02
        8425     1.016396     2.739194   0.01388574     16399.32
        8426     1.010692     2.753506   0.01404414      16401.6
        8427     1.006038     2.767782   0.01358656     16405.21
        8428     1.002121     2.781934   0.01235845     16409.01
        8429    0.9986492      2.79354   0.01019478     16412.02
        8430    0.9956024      2.80294  0.007327258     16415.49
        8431    0.9930412     2.808561  0.004036901     16420.22
        8432    0.9911258     2.811243  0.000282632     16424.62
        8433    0.9897119     2.809687 -0.003619681     16428.52
        8434    0.9889882     2.804071 -0.007393888     16432.17
        8435    0.9890521     2.794082  -0.01067938     16436.86
        8436    0.9893123     2.781667  -0.01326962     16440.06
        8437    0.9900449      2.76697  -0.01480387     16442.71
        8438    0.9908733     2.750992   -0.0160077      16445.9
        8439    0.9917998     2.734867  -0.01681659     16450.93
        8440    0.9922778     2.717637  -0.01728961     16455.89
        8441    0.9927392     2.699704  -0.01739205     16460.28
        8442      0.99275     2.681834  -0.01698231     16464.01
        8443    0.9925276     2.665299  -0.01601347      16468.1
        8444    0.9920107     2.649707  -0.01470566     16472.09
        8445    0.9913579      2.63565  -0.01326119     16475.52
        8446    0.9906599     2.623011  -0.01180212     16478.46
        8447    0.9899988     2.612254  -0.01102412     16481.14
        8448    0.9892929     2.602499   -0.0109673     16484.65
        8449    0.9888165     2.591553  -0.01188934     16489.38
        8450    0.9881996     2.579142  -0.01330912     16493.72
        8451    0.9875394     2.564697  -0.01467659     16497.84
        8452    0.9871476     2.549262  -0.01571335     16502.05
        8453    0.9870531     2.532847  -0.01574097     16506.63
        8454    0.9870779     2.516288  -0.01512817     16508.93
        8455    0.9875789     2.501733  -0.01384282      16512.4
        8456    0.9883405      2.48875  -0.01181095      16517.3
        8457    0.9891558     2.477476 -0.009401477     16521.45
        8458    0.9899269     2.469045 -0.006658437     16525.53
        8459    0.9906472     2.464127 -0.003660412     16529.85
        8460    0.9912811     2.462116 -0.0006977731     16534.06
        8461    0.9915024     2.462834  0.002063759     16536.65
        8462    0.9916529     2.466253  0.004609818     16540.39
        8463     0.991514     2.472382  0.006834818     16544.19
        8464    0.9905214     2.480555  0.008485929     16546.57
        8465     0.989243     2.490173  0.009693969     16550.69
        8466    0.9877576     2.500197   0.01048155     16554.84
        8467    0.9859014     2.511158   0.01089859     16558.31
        8468    0.9832925     2.522481   0.01135858     16561.95
        8469    0.9801704     2.533768   0.01128443     16565.44
        8470    0.9762667     2.545631   0.01062582     16567.22
        8471    0.9718913     2.556295  0.009594912     16570.18
        8472    0.9673209     2.564985  0.007862667     16573.19
        8473     0.962366     2.572147  0.005974187     16577.73
        8474    0.9577312     2.577082  0.004051745     16581.75
        8475    0.9533407     2.580192  0.001955797     16584.42
        8476    0.9498059     2.581192 0.0001173863     16587.52
        8477    0.9473504      2.57997 -0.001409237     16590.54
        8478    0.9456433     2.577552 -0.002330944     16593.28
        8479    0.9448602     2.574555  -0.00251515     16596.96
        8480    0.9450946     2.571868 -0.002070191     16601.92
        8481    0.9462048      2.56991 -0.0005563237     16607.69
        8482    0.9484881     2.569271   0.00161655     16612.92
        8483    0.9516796      2.57233  0.004606601     16617.53
        8484    0.9556798     2.578334  0.008152225     16621.86
        8485    0.9600632     2.588336   0.01169456     16623.44
        8486    0.9649148      2.60188   0.01511351     16625.54
        8487    0.9701942     2.619108   0.01766956     16628.74
        8488    0.9755668     2.638788   0.01918367     16632.85
        8489    0.9807641     2.659014   0.01953504     16636.08
        8490    0.9858334     2.678615   0.01882865      16639.1
        8491    0.9905829     2.697248   0.01751884     16643.49
        8492    0.9954926     2.714103   0.01550762     16649.74
        8493     1.000044      2.72909   0.01307382     16654.84
        8494     1.004031     2.740645   0.01049205     16657.04
        8495     1.007801     2.749544  0.007852767     16660.08
        8496     1.010971     2.756071  0.005703321     16662.96
        8497     1.014223     2.760501  0.003712509     16666.82
        8498     1.017241     2.763458  0.001989834     16669.04
        8499     1.019715     2.764394 0.0005125793     16671.23
        8500     1.021412      2.76403 -0.0009349502     16674.25
        8501     1.023103     2.762551 -0.002372931      16679.3
        8502      1.02455     2.759718 -0.004139811     16684.52
        8503     1.025561     2.754902 -0.006346514     16689.01
        8504     1.026469     2.747471 -0.008598593     16692.82
        8505     1.027756     2.737165  -0.01074443     16696.08
        8506     1.029254     2.725324  -0.01279365     16699.08
        8507      1.03128     2.711924  -0.01468892     16703.31
        8508      1.03339     2.696297  -0.01651585     16707.32
        8509     1.035333     2.678409  -0.01859628     16710.36
        8510     1.037102     2.659261  -0.02015764     16713.65
        8511     1.039014     2.637539  -0.02129083     16717.58
        8512     1.040977     2.615666  -0.02242725      16722.6
        8513     1.043428     2.593246   -0.0230875     16727.33
        8514     1.047466     2.569552  -0.02380206      16728.3
        8515     1.051929     2.545189  -0.02433936     16716.26
        8516      1.05433     2.520458  -0.02428473     16694.27
        8517     1.056009     2.495889  -0.02349982     16686.69
        8518     1.056894     2.472413  -0.02215029     16686.06
        8519     1.056214      2.45119  -0.02007516     16686.76
        8520     1.056226     2.431857  -0.01759859     16686.21
        8521     1.055381     2.415588  -0.01463753     16688.45
        8522     1.053346     2.402018  -0.01140333     16692.38
        8523     1.051413      2.39264 -0.007823302     16696.86
        8524     1.050075     2.386243 -0.004160369     16704.34
        8525     1.049016     2.384295 -0.000704455     16707.36
        8526      1.04619     2.385377  0.002643814     16709.41
        8527     1.042184     2.389822  0.005412231     16713.31
        8528     1.038797     2.396818  0.007975329     16721.94
        8529     1.035499     2.405944  0.009914598     16728.35
        8530     1.032061     2.417278   0.01140653      16730.2
        8531     1.028258      2.42948   0.01238787     16731.71
        8532     1.024832     2.442445   0.01277462      16735.6
        8533     1.020316     2.455495   0.01293295     16738.71
        8534      1.01461     2.468377   0.01258182     16741.43
        8535     1.009199     2.481212   0.01197183     16747.61
        8536     1.004717     2.492772   0.01122141     16751.04
        8537     0.999954     2.503383   0.01022292     16753.48
        8538    0.9959807     2.513262  0.009087677      16753.6
        8539    0.9918288     2.522104  0.007865629     16755.01
        8540    0.9875102     2.529123  0.006536364     16762.99
        8541    0.9847879     2.534845  0.005121331     16767.48
        8542    0.9827056     2.539408  0.003705304     16769.67
        8543     0.980883     2.542589   0.00219094     16774.89
        8544    0.9803347     2.543944 0.0008650398     16781.37
        8545    0.9806167     2.543609 -0.0003444146     16785.88
        8546    0.9801923     2.542868 -0.001116722     16787.01
        8547    0.9797917     2.541211 -0.001563559     16790.41
        8548    0.9794789     2.539477 -0.002026244     16794.21
        8549    0.9799112     2.537355 -0.002396053     16800.04
        8550    0.9806055     2.534763 -0.002781439     16803.77
        8551    0.9809722     2.531627 -0.002923734     16809.91
        8552    0.9815751     2.528351 -0.003093963     16811.37
        8553    0.9822985      2.52566 -0.003216184     16813.61
        8554    0.9835585     2.522387 -0.003305619     16817.66
        8555    0.9851478     2.518762 -0.003683134     16822.22
        8556    0.9868626     2.515129 -0.003958499     16826.19
        8557    0.9887522     2.510927 -0.004131301     16829.88
        8558    0.9899604     2.506553 -0.004286662     16835.22
        8559    0.9904135     2.502237 -0.004129831        16838
        8560    0.9910152     2.497982 -0.003815067     16837.85
        8561     0.991821     2.494408 -0.003000767     16840.39
        8562    0.9930154     2.491293 -0.001851535      16846.7
        8563    0.9941585     2.490234 -0.0004271608     16851.37
        8564    0.9951723     2.490576  0.001435535     16855.11
        8565    0.9959093     2.492699  0.003206339     16858.92
        8566    0.9966784     2.497035  0.004897646     16864.96
        8567    0.9970844      2.50306  0.006551027     16867.49
        8568    0.9977101     2.510166  0.007869112     16869.15
        8569    0.9979892     2.518903  0.008863343     16872.93
        8570     0.997961     2.528511  0.009439021      16878.7
        8571    0.9990469     2.538513  0.009398856     16884.99
        8572     1.000464     2.547923  0.009128823     16892.72
        8573     1.001935     2.556499  0.008574893     16898.97
        8574     1.003418     2.565027  0.007803489     16900.65
        8575     1.005196     2.572812  0.007023277     16903.91
        8576     1.005814     2.579137  0.006011181     16908.59
        8577     1.005671     2.584592  0.004983574     16912.33
        8578     1.005965     2.589072  0.004207601      16917.3
        8579     1.006541     2.592747  0.003394438     16923.09
        8580     1.007323     2.595967  0.002431535     16927.09
        8581     1.008376      2.59817  0.001457533     16931.34
        8582     1.009327     2.598798 0.0002863379     16936.66
        8583     1.010419     2.598577 -0.0007434566     16940.26
        8584     1.012027     2.597112 -0.001801476     16942.59
        8585     1.012718     2.595196 -0.003020369     16943.69
        8586      1.01329     2.591592 -0.004171271     16945.73
        8587     1.014307     2.586495 -0.005541926     16946.49
        8588     1.015241     2.580427 -0.006869426      16947.7
        8589     1.015641     2.573028 -0.007926671     16951.56
        8590     1.017156     2.564114 -0.009001542     16959.41
        8591     1.018173     2.554789 -0.009787252     16964.15
        8592     1.018433     2.544421  -0.01042036     16964.51
        8593     1.018583     2.533879  -0.01115305     16964.35
        8594     1.019221     2.522433  -0.01151624     16968.92
        8595     1.018529     2.510177  -0.01177897     16972.47
        8596     1.017861     2.498356  -0.01165809     16975.78
        8597     1.017976     2.486763  -0.01117187     16977.71
        8598     1.017489       2.4758  -0.01080422      16979.7
        8599     1.016163     2.465489  -0.01041923      16984.2
        8600     1.014122     2.455139 -0.009832185     16989.91
        8601     1.012358     2.445086 -0.009197852     16993.93
        8602     1.010709     2.436472 -0.008321158     16994.36
        8603     1.008999     2.428698 -0.007258429      16998.1
        8604     1.007014     2.421855  -0.00630712     17005.35
        8605     1.005734     2.416052 -0.005380276     17012.76
        8606      1.00451     2.411243 -0.004402868      17016.1
        8607     1.002601     2.407177 -0.003467123      17020.2
        8608     0.999763     2.404243 -0.002633233     17024.16
        8609    0.9968928     2.402184 -0.001761626     17027.24
        8610     0.994752      2.40071 -0.001129473      17030.7
        8611    0.9938381      2.40013 -0.0006540629     17034.72
        8612     0.993886     2.399725 -0.000250508     17039.68
        8613    0.9945938     2.399568 -0.0001128795      17041.7
        8614    0.9951761     2.399708 -8.10295e-05     17044.17
        8615    0.9946326     2.399679 -5.57315e-05     17047.95
        8616    0.9943103     2.399401 -8.493202e-05     17050.79
        8617    0.9938337     2.399345 -0.0002173025     17051.77
        8618    0.9937298     2.399368 -0.000198695     17053.45
        8619    0.9938724     2.398809 -0.0002976945     17054.47
        8620    0.9948527     2.398606 -0.000379655     17054.48
        8621    0.9960823     2.398154 -0.000416722     17049.66
        8622    0.9966621      2.39785  -0.00032483     17029.86
        8623    0.9968842     2.397142 -0.0003462995     16947.31
        8624    0.9961719     2.397307 -0.0001998485     16814.07
        8625    0.9954128     2.396769 -0.000212878      16840.3
        8626    0.9943627      2.39705 -0.0002198855     16897.72
        8627    0.9953459     2.396291 -0.000120799      17048.5
        8628    0.9961833     2.396427 -4.704995e-05      17088.1
        8629    0.9967966     2.396286  0.000297987     17098.17
        8630    0.9974105     2.396862 0.0005399125     17103.47
        8631    0.9984049     2.397483 0.0007811915     17110.77
        8632    0.9981679     2.398587  0.001141147     17115.41
        8633    0.9983872      2.39941  0.001484056     17117.86
        8634    0.9987417     2.401427  0.001763862     17119.35
        8635    0.9984607     2.403419  0.002161006     17123.29
        8636    0.9983324     2.405643  0.002082001     17128.95
        8637     0.997992     2.408054  0.002147585     17134.28
        8638    0.9976669     2.409755  0.002191762      17137.5
        8639    0.9976569     2.412009  0.002079264     17138.65
        8640    0.9981726      2.41441   0.00210301     17141.68
        8641    0.9987297     2.416371  0.001942149     17143.61
        8642    0.9991197     2.418167  0.001821227      17145.1
        8643    0.9997618     2.419778  0.001669686     17147.93
        8644     1.000526     2.421695  0.001476063     17151.67
        8645     1.000845      2.42305  0.001375091     17153.89
        8646       1.0015     2.424071  0.001143728     17159.68
        8647     1.002033     2.425278  0.001139881     17164.57
        8648     1.002397     2.426269  0.001037022     17168.51
        8649     1.002571      2.42761  0.000939911     17173.47
        8650     1.002837     2.428219 0.0007926575     17178.43
        8651     1.003129     2.429038  0.000692241      17183.2
        8652     1.003582      2.42944  0.000723919     17188.72
        8653     1.004447     2.430379  0.000782954     17191.99
        8654     1.005231     2.431115 0.0009072165      17194.6
        8655     1.005572      2.43217 0.0008629085     17198.42
        8656      1.00602     2.433069 0.0008961605     17202.72
        8657     1.007005      2.43383  0.000946721     17207.04
        8658     1.007774     2.434699  0.001115007     17209.57
        8659     1.008843     2.435957  0.001253132     17212.81
        8660     1.010133     2.437529  0.001455429     17214.51
        8661      1.01109     2.438843  0.001519782     17218.19
        8662     1.011709     2.440521  0.001557866     17221.59
        8663     1.012308     2.442036   0.00162445     17225.81
        8664      1.01324      2.44376  0.001587178     17228.63
        8665     1.014323     2.445341  0.001427893     17229.66
        8666     1.014866      2.44687  0.001207629     17230.75
        8667     1.014989     2.447747 0.0009220239     17235.07
        8668     1.015352     2.448591 0.0004539775     17239.38
        8669     1.015789     2.449029  0.000120234        17243
        8670     1.016154     2.448686 -0.0002414436     17247.48
        8671     1.016073     2.448228 -0.0007954271     17251.95
        8672     1.014634     2.447625 -0.001263968     17254.55
        8673     1.013472     2.445847 -0.001703676     17257.34
        8674     1.013041      2.44363 -0.002352004     17260.99
        8675     1.012693     2.441414 -0.002796504     17263.61
        8676     1.011885     2.438217 -0.003041801     17266.25
        8677     1.011073     2.434661 -0.003428632     17269.92
        8678     1.010233     2.431463 -0.003739738     17273.55
        8679     1.008988     2.427699 -0.003938847     17278.76
        8680      1.00776     2.423258  -0.00432234     17281.65
        8681     1.006117     2.418906 -0.004515921     17285.56
        8682     1.004383     2.414173 -0.004468012     17290.37
        8683     1.003108     2.409635 -0.004559858     17294.62
        8684     1.002152     2.405386 -0.004505217     17295.91
        8685     1.000586     2.400666 -0.004459845     17296.93
        8686    0.9984196     2.396152 -0.004503334     17298.96
        8687    0.9964135     2.391796  -0.00432649      17300.7
        8688    0.9945479     2.387373 -0.003987933     17303.69
        8689    0.9928812      2.38336 -0.003727927     17307.59
        8690    0.9914398     2.380201 -0.003302307     17311.49
        8691    0.9904887     2.376884 -0.002771409     17315.07
        8692    0.9900309     2.374164 -0.002527375     17318.26
        8693    0.9892724     2.372275 -0.001942914     17321.25
        8694    0.9886783     2.370091 -0.001544441     17325.39
        8695    0.9885089     2.369113 -0.001282889     17329.41
        8696    0.9882457     2.367986 -0.0008940125     17333.06
        8697    0.9875968     2.367143 -0.000684663      17333.1
        8698    0.9869442     2.366515 -0.000459095     17319.84
        8699    0.9867005     2.366374   -0.0003878     17308.31
        8700     0.986787     2.366149 -0.0004110385     17314.79
        8701    0.9869846     2.365592 -0.000588578     17325.85
        8702    0.9872536     2.364871 -0.0009199001     17339.11
        8703    0.9875161      2.36402 -0.001274181      17348.5
        8704    0.9875466      2.36247 -0.001520761     17352.47
        8705    0.9879501     2.360495 -0.001907557     17353.72
        8706    0.9881644     2.358788 -0.002155747     17344.22
        8707    0.9883503      2.35639 -0.002453874     17335.09
        8708    0.9882161     2.353847 -0.002959212      17340.6
        8709    0.9882658      2.35068 -0.003342569      17351.1
        8710    0.9881318     2.346951 -0.003646293     17362.44
        8711    0.9878427     2.343019 -0.003788261     17371.13
        8712    0.9874292     2.339262 -0.003858535     17377.32
        8713    0.9869641     2.335527  -0.00362986      17381.7
        8714    0.9868201     2.331517  -0.00342913     17385.41
        8715    0.9867654       2.3285 -0.003097774     17390.36
        8716    0.9865141     2.325545 -0.002606576     17394.24
        8717     0.986377     2.323136 -0.002212863     17398.16
        8718     0.986262     2.321091  -0.00171848     17401.29
        8719    0.9865467     2.319648 -0.001417241     17406.32
        8720    0.9871488     2.318671 -0.001080112     17411.82
        8721    0.9874751     2.317467 -0.0007534965      17414.3
        8722    0.9874529      2.31677 -0.0007651825     17415.62
        8723    0.9873875     2.316634 -0.0005143205     17418.07
        8724    0.9873864      2.31561 -0.000523529     17421.36
        8725    0.9875714     2.315409 -0.000606597     17425.94
        8726    0.9880091     2.314676 -0.0004389105     17429.18
        8727    0.9882763     2.314208 -0.0005080265     17433.38
        8728     0.988455     2.313855 -0.000457043     17437.12
        8729    0.9887112     2.313377 -0.0004170795     17439.71
        8730    0.9894575     2.312848 -0.0003637245     17441.43
        8731    0.9904078      2.31254 -0.0002732205     17444.19
        8732    0.9910773       2.3124 -0.0001386355     17448.32
        8733    0.9917895     2.312284 1.526051e-05     17453.57
        8734    0.9925762     2.312293 6.512699e-05     17458.66
        8735    0.9931479     2.312601 9.959498e-06     17461.95
        8736    0.9939025      2.31266 1.605751e-05      17464.7
        8737    0.9946729     2.312324 9.206551e-05     17467.11
        8738     0.995236     2.312358 0.0001447255     17472.81
        8739    0.9953641     2.312969 0.0002313195     17477.21
        8740    0.9957296     2.313239  0.000280491     17480.42
        8741    0.9961591     2.313249  0.000183351     17481.04
        8742    0.9966454      2.31348 0.0002813475     17481.94
        8743     0.997677     2.313702  0.000409074     17485.73
        8744    0.9984175     2.314365  0.000486602     17488.25
        8745    0.9988417     2.314886  0.000586949     17492.37
        8746    0.9992132     2.315426  0.000499475     17496.02
        8747    0.9995975      2.31605  0.000513332     17496.71
        8748     1.000274     2.316363 0.0004885975     17497.48
        8749     1.001093     2.316939 0.0004575035     17499.57
        8750     1.001898      2.31738  0.000531535      17502.9
        8751      1.00287      2.31788  0.000571599     17507.01
        8752     1.003697     2.318489  0.000503501     17508.55
        8753     1.004762     2.319225 0.0004667375     17511.72
        8754     1.005933     2.319394  0.000369473     17517.18
        8755     1.006941     2.319747 0.0003368705     17520.88
        8756     1.007904     2.319967  0.000337793     17523.71
        8757     1.008648     2.320573 0.0003659975     17525.95
        8758     1.009452     2.320746 0.0003327335     17527.72
        8759     1.010346     2.321211 0.0002431665      17530.6
        8760     1.010603     2.321298 0.0002016275     17535.34
        8761     1.010038     2.321546 0.0001974835     17540.12
        8762      1.00921     2.321552 0.0001480015     17545.11
        8763     1.008851     2.322001  0.000159681     17549.63
        8764     1.008409      2.32189 0.0002123155      17551.7
        8765       1.0081     2.322184  0.000134447     17554.26
        8766     1.007866     2.322401 0.0001765125     17557.67
        8767     1.007581     2.322539 0.0001265795     17560.11
        8768     1.007212     2.322596 5.634449e-05     17562.67
        8769      1.00686     2.322691 -2.198651e-05     17566.76
        8770     1.006398     2.322627 -0.000114921     17569.42
        8771     1.005424     2.322451 -0.0001645575     17571.66
        8772     1.004541     2.322136 -0.0001501315     17575.41
        8773     1.003758     2.322032 -0.000272044     17578.79
        8774     1.002892     2.322026 -0.000385539     17581.66
        8775     1.002151     2.321363 -0.0005329875     17584.89
        8776     1.001605     2.320594 -0.000784477     17587.31
        8777      1.00153       2.3199 -0.0008541285     17589.64
        8778     1.001486     2.318888 -0.000960805     17590.79
        8779     1.000946     2.317946 -0.001224217     17591.93
        8780     1.000321     2.316751 -0.001279219     17594.88
        8781    0.9997901     2.315004 -0.001487186     17599.54
        8782    0.9990384     2.313771 -0.001693671     17603.14
        8783    0.9988308     2.311997 -0.001761426     17606.28
        8784    0.9980742     2.309976 -0.002031712     17607.66
        8785    0.9971928     2.307958 -0.002147816     17609.65
        8786    0.9968144     2.305645 -0.002367457     17612.37
        8787    0.9963464     2.303406 -0.002489059     17613.96
        8788    0.9960806     2.300506 -0.002563965     17614.74
        8789    0.9958138     2.298002 -0.002678915     17616.32
        8790    0.9956637     2.295389 -0.002606645     17619.67
        8791    0.9957624     2.292691  -0.00252617     17624.46
        8792     0.995502      2.29008 -0.002459183     17629.06
        8793    0.9948018     2.287897 -0.002436373     17633.21
        8794    0.9945334     2.285552 -0.002227672     17634.88
        8795    0.9947156     2.282945  -0.00224989     17637.28
        8796    0.9950009     2.281169 -0.002109041     17639.68
        8797    0.9953079     2.278897  -0.00192112     17641.57
        8798    0.9954535     2.277116 -0.001960488     17642.91
        8799    0.9955023     2.275261 -0.001677031      17644.3
        8800    0.9954773     2.273327 -0.001534738     17646.48
        8801     0.995341     2.272189 -0.001302813     17649.64
        8802    0.9958202     2.270977 -0.001117291     17652.42
        8803    0.9962617     2.270049 -0.0009991435     17655.02
        8804    0.9965505     2.268858  -0.00093556     17659.47
        8805      0.99633     2.268193 -0.000873133     17662.31
        8806    0.9960449     2.267235 -0.0007160925     17665.22
        8807    0.9961273     2.266557  -0.00065378     17668.51
        8808    0.9961501     2.265993 -0.000558391     17670.83
        8809    0.9960293     2.265578 -0.000549611     17674.43
        8810    0.9958701     2.265001 -0.0005873065     17677.42
        8811    0.9960027     2.264358 -0.0006560755     17680.29
        8812    0.9962045     2.263644   -0.0007056     17683.02
        8813    0.9957331     2.262953 -0.0005846175     17683.42
        8814     0.995284     2.262179 -0.0005554835     17686.48
        8815    0.9950585      2.26202 -0.0005869605     17690.94
        8816     0.995046     2.261422 -0.0006320235     17694.18
        8817    0.9948452     2.260605  -0.00083307     17696.72
        8818    0.9945313     2.259651 -0.000898279     17699.62
        8819    0.9940051     2.258688 -0.000929136     17702.09
        8820    0.9937571     2.257829 -0.0009938625     17703.97
        8821    0.9937574     2.256889 -0.001033431      17704.5
        8822    0.9939128     2.255675 -0.001081965     17704.89
        8823    0.9943428     2.254554 -0.001247575      17704.7
        8824    0.9947437     2.253501 -0.001369873     17703.65
        8825     0.995483     2.251899 -0.001578188     17703.35
        8826    0.9961142     2.250196 -0.001785013     17700.71
        8827    0.9959262     2.248241 -0.001804689     17695.76
        8828    0.9953094     2.246361 -0.001847082     17687.74
        8829    0.9948809      2.24468 -0.001960182     17669.18
        8830    0.9949592     2.242807 -0.001852771     17623.91
        8831    0.9967441       2.2404 -0.001544949     17484.84
        8832     0.997505      2.23895 -0.001736248     17224.72
        8833    0.9927501       2.2385 -0.001282567     17210.12
        8834    0.9945427     2.235862 -0.001152291     17337.25
        8835    0.9939241      2.23527   -0.0015462     17240.09
        8836    0.9909588     2.234341 -0.001214797     17463.64
        8837    0.9924851     2.232315 -0.001376333     17699.66
        8838    0.9932167     2.231003 -0.001465881      17755.9
        8839    0.9933851     2.229765 -0.001228211     17769.16
        8840    0.9935502     2.228477 -0.001165854     17775.19
        8841    0.9935275     2.227402 -0.001081068     17778.86
        8842    0.9935794      2.22634 -0.001051323     17781.88
        8843    0.9937968     2.225441 -0.001091036     17784.35
        8844    0.9942837     2.224272 -0.001108559     17787.93
        8845    0.9948085     2.223038  -0.00111627     17789.43
        8846    0.9953094     2.221905 -0.001123589     17791.83
        8847     0.995607     2.220975 -0.001106241     17794.33
        8848    0.9961305     2.219778 -0.001092313     17797.74
        8849    0.9970332     2.218613 -0.001098448     17802.55
        8850    0.9979331     2.217536 -0.001036542     17806.47
        8851    0.9985865     2.216582 -0.000981805     17808.59
        8852    0.9988667     2.215632 -0.0009652285     17810.64
        8853    0.9991902     2.214686 -0.0009655215     17811.59
        8854    0.9996428     2.213675 -0.000925716     17813.75
        8855    0.9999338      2.21272 -0.0007977595     17817.13
        8856     1.000381     2.211929 -0.0007589995     17819.49
        8857     1.000676     2.211495 -0.000627225     17821.91
        8858     1.000893     2.210639 -0.000533569     17823.11
        8859     1.000948     2.210211 -0.0006130145      17826.1
        8860     1.001214     2.209794 -0.000511212     17829.61
        8861     1.001967     2.209043 -0.000437248     17835.99
        8862     1.002634     2.208594 -0.000392324     17841.88
        8863     1.003061     2.208462 -0.0002741895      17845.8
        8864     1.002713     2.208225 -0.0001720405     17847.95
        8865     1.002304     2.207946 -0.0001853795     17849.22
        8866     1.002115     2.207906 -0.000172618     17851.06
        8867     1.001881      2.20772  -7.1026e-05     17853.12
        8868     1.001543     2.207535 -8.274949e-05      17854.9
        8869     1.001216     2.207662 -1.549999e-05     17857.23
        8870     1.001072     2.207575 5.399549e-05     17860.27
        8871     1.001036     2.207658 8.185997e-06      17863.9
        8872     1.000966     2.207751 1.877152e-05     17867.12
        8873     1.001002     2.207695 0.0001195955     17871.07
        8874      1.00039      2.20765 9.837051e-05     17874.43
        8875    0.9996714     2.208137 0.0002101715     17876.71
        8876    0.9993963     2.208144  0.000291927     17879.68
        8877    0.9993075     2.208536 0.0001794445     17881.89
        8878    0.9990392     2.208818  0.000237632     17883.35
        8879    0.9985923     2.208854  0.000175224      17885.3
        8880    0.9981224     2.209095 0.0002315715     17889.31
        8881    0.9975869     2.209236  0.000278259      17892.6
        8882    0.9971864     2.209744 0.0003359735      17895.3
        8883    0.9969897     2.209967  0.000319884     17897.15
        8884    0.9968923     2.210439   0.00021652     17898.57
        8885     0.996884     2.210516  0.000214875     17900.92
        8886    0.9964693      2.21061  0.000215987     17904.17
        8887    0.9961779     2.210827 0.0001591965     17907.85
        8888    0.9958688     2.211303  0.000159193     17911.15
        8889    0.9957355     2.211153 6.303498e-05     17914.62
        8890    0.9958988     2.211247 -7.45535e-05     17918.92
        8891    0.9958137     2.211079 -0.000115169     17921.18
        8892    0.9954742     2.211004 -0.000189374     17923.02
        8893    0.9954682     2.210692 -0.000248188     17925.38
        8894    0.9953256      2.21049  -0.00025629     17927.18
        8895    0.9954164     2.210086 -0.000440959     17931.15
        8896    0.9954246     2.209979 -0.0006049205     17934.36
        8897    0.9957717     2.208928 -0.0007669051     17936.58
        8898    0.9959559      2.20807 -0.001099531     17939.19
        8899    0.9956758     2.207019 -0.001112602     17941.46
        8900    0.9953403     2.205581 -0.001196772     17943.56
        8901    0.9951795     2.204478 -0.001306424     17946.38
        8902    0.9951907     2.203283 -0.001340694     17950.09
        8903    0.9950691     2.201793 -0.001460318     17953.39
        8904     0.994971     2.200218 -0.001663592        17956
        8905    0.9949898     2.198637 -0.001711172      17957.6
        8906    0.9953244     2.196629 -0.001767417     17959.68
        8907    0.9955633     2.194948 -0.001781465     17962.25
        8908    0.9955985     2.193149 -0.001686403     17964.53
        8909    0.9957122     2.191511 -0.001767817     17967.51
        8910    0.9956762     2.189883 -0.001793144     17970.47
        8911    0.9955613     2.187877  -0.00179195     17975.14
        8912    0.9953089     2.185976  -0.00175626     17978.98
        8913    0.9949845     2.184343 -0.001641603     17981.16
        8914    0.9948952     2.182858 -0.001506909     17982.51
        8915    0.9951998     2.181311 -0.001449143     17984.83
        8916    0.9956295     2.179948  -0.00147933     17987.51
        8917    0.9960266     2.178546 -0.001407891     17989.21
        8918    0.9963095     2.176941 -0.001387788      17991.4
        8919    0.9966134     2.175679 -0.001320547     17995.07
        8920     0.996629     2.174397 -0.001135616     17998.07
        8921    0.9965729     2.173264  -0.00113595     18000.71
        8922    0.9965549     2.172398 -0.001097957     18003.26
        8923    0.9962875     2.171135 -0.001101638     18006.12
        8924    0.9961403     2.170005 -0.001127669     18009.01
        8925    0.9961556     2.168858  -0.00104159     18012.14
        8926    0.9962212     2.167887  -0.00103319     18015.54
        8927    0.9961302     2.166969 -0.001008883     18017.78
        8928    0.9962838     2.165873 -0.000988353     18019.54
        8929    0.9962141     2.164822 -0.000885189     18020.69
        8930    0.9961276     2.163934 -0.0009172365      18023.9
        8931    0.9958599     2.163428 -0.0008026675     18026.87
        8932    0.9956857     2.162204 -0.0008579995     18029.91
        8933    0.9957668     2.161611 -0.0008902495     18033.18
        8934    0.9962348     2.160502 -0.000800116     18035.69
        8935    0.9969318     2.159867 -0.0008525085     18037.47
        8936    0.9975938     2.159003 -0.0007570835     18034.65
        8937     0.998287     2.158201 -0.0007573825      18009.6
        8938    0.9987003     2.157474 -0.000665552     17957.46
        8939    0.9988507     2.156838 -0.0007223915     17938.95
        8940     0.998892     2.156341 -0.000805976     17962.25
        8941    0.9988917     2.155312 -0.000775221      18014.6
        8942    0.9993463      2.15425 -0.0008005865      18038.5
        8943    0.9995494     2.153737 -0.0007924285      18045.9
        8944     0.999706     2.153139 -0.000694903     18052.45
        8945    0.9999213     2.152142 -0.0008327205      18058.4
        8946    0.9995486      2.15147 -0.000895836     18063.62
        8947    0.9989001     2.150406 -0.000908846     18066.27
        8948     0.998801     2.149555 -0.0009484275     18069.74
        8949    0.9990778     2.148507 -0.0008814875     18071.74
        8950    0.9995096     2.147677 -0.0008781405     18073.99
        8951    0.9999659      2.14688 -0.000823889     18075.48
        8952     1.000149     2.146043 -0.0008330875     18078.35
        8953     1.000166     2.145211 -0.000879578     18080.86
        8954    0.9998486     2.144344 -0.0008745405     18084.41
        8955    0.9997116     2.143362 -0.0008838315     18087.41
        8956     1.000022     2.142545 -0.0008967965     18088.65
        8957     1.000155     2.141676 -0.0008762855     18089.68
        8958     1.000377     2.140757 -0.0008956165     18091.54
        8959     1.000405     2.139856 -0.0009782785     18094.23
        8960     1.000566     2.138962 -0.0009634205     18095.71
        8961      1.00081     2.137763 -0.0009434045     18098.79
        8962     1.001184     2.136903 -0.0008802325      18101.5
        8963     1.001592     2.136083 -0.0008909665     18103.67
        8964        1.002     2.135441 -0.0009616845     18107.18
        8965     1.002239     2.134199 -0.0009594905     18111.07
        8966      1.00215     2.133057 -0.001088196     18114.85
        8967     1.002016     2.132245 -0.001010778     18116.45
        8968      1.00205     2.131088 -0.0009845835      18118.3
        8969     1.001905     2.130156 -0.001006855      18119.8
        8970     1.001961     2.129118 -0.0009200385     18121.95
        8971     1.001876     2.128217 -0.000911564        18125
        8972     1.001755     2.127408 -0.000948358     18129.87
        8973     1.001877     2.126509 -0.000959512     18133.19
        8974     1.002155     2.125325 -0.000943401     18135.38
        8975     1.002544     2.124379  -0.00089769     18137.11
        8976     1.002973     2.123635 -0.000835634     18138.31
        8977     1.003387     2.122919 -0.0008494735     18140.84
        8978     1.003405     2.121982 -0.000799373     18142.21
        8979     1.003128     2.120981 -0.000767185     18143.64
        8980      1.00287     2.120437 -0.0007048425     18145.64
        8981      1.00267      2.11985 -0.000629527     18148.05
        8982     1.002386     2.119163 -0.000699672      18148.4
        8983      1.00208     2.118463 -0.0007411125     18149.42
        8984     1.001943     2.117638 -0.0007117455     18150.56
        8985     1.002066     2.116885 -0.0006875935     18152.44
        8986     1.002196     2.116316 -0.000622984     18154.73
        8987     1.002378     2.115713  -0.00056819     18157.67
        8988     1.002309     2.115147 -0.000604008     18159.46
        8989     1.002507     2.114613 -0.000583992     18161.78
        8990     1.002889       2.1139 -0.0006076115     18163.77
        8991     1.003381     2.113377 -0.000645941     18164.44
        8992       1.0035     2.112716 -0.0005171585     18165.07
        8993     1.003367     2.112029 -0.0005090825     18167.13
        8994     1.003346     2.111831 -0.0004800785      18169.2
        8995     1.003537     2.111341 -0.0004513505     18171.96
        8996     1.003456     2.110796 -0.000556751     18174.72
        8997     1.003089     2.110224 -0.0006589225     18177.42
        8998     1.002628     2.109604 -0.000617062     18179.71
        8999     1.002354     2.108705 -0.000616294     18181.86
        9000     1.002142     2.108328 -0.0005581745     18183.79
        9001     1.002371     2.107758 -0.0004529775     18185.88
        9002     1.002865     2.107372 -0.000536571     18189.33
        9003     1.003192     2.106893 -0.000509527     18191.85
        9004     1.003257     2.106181 -0.0005660575     18195.02
        9005     1.003069      2.10572 -0.0005381155     18197.61
        9006     1.002435     2.105107 -0.0004631185      18200.1
        9007     1.001937     2.104741 -0.000453681     18203.31
        9008     1.001473     2.104329 -0.000360229     18205.42
        9009     1.000804     2.103906 -0.0003554975     18207.25
        9010    0.9999406     2.103666 -0.0004678425     18208.38
        9011    0.9992332     2.103319 -0.000406339     18209.47
        9012    0.9987493     2.102457 -0.0004747675     18211.94
        9013    0.9983348      2.10228 -0.000431635     18214.54
        9014    0.9981563     2.101767  -0.00034777     18216.04
        9015     0.998103     2.101592 -0.0004569795     18217.79
        9016    0.9981992     2.101066 -0.0003601685      18221.2
        9017    0.9983674     2.100452    -0.000434     18224.13
        9018    0.9983234     2.100327 -0.000485673     18226.39
        9019    0.9980456     2.099856 -0.000499447     18228.88
        9020    0.9979838     2.099124 -0.0005592985     18232.73
        9021    0.9979773     2.098455 -0.000580991     18235.66
        9022     0.998037     2.098089 -0.000577354     18237.74
        9023    0.9980777     2.097532 -0.000584215     18240.19
        9024    0.9980044     2.096814 -0.0006636665     18242.83
        9025    0.9980387     2.096118 -0.0006494625     18244.66
        9026     0.998083     2.095435 -0.0006078915     18246.47
        9027    0.9984091     2.094934 -0.000603733      18248.9
        9028     0.998978     2.094383 -0.0006117755     18252.91
        9029    0.9993964     2.093703 -0.000697609     18255.53
        9030    0.9996258     2.092988   -0.0007032     18258.79
        9031    0.9995564     2.092144   -0.0006983     18260.77
        9032    0.9993497      2.09157 -0.0007711375     18261.05
        9033    0.9993462      2.09091 -0.0006874585     18261.83
        9034     0.999457     2.089903 -0.000740822     18264.46
        9035    0.9995266     2.089394 -0.000846931     18267.96
        9036    0.9994459     2.088607 -0.0007784595     18271.06
        9037    0.9998244     2.087522 -0.0007638125     18273.86
        9038    0.9997167     2.086789 -0.0008041525     18274.53
        9039    0.9992662     2.086339 -0.0006735515      18275.1
        9040    0.9988886      2.08539 -0.000739018     18275.79
        9041    0.9987815     2.084828 -0.000772135     18277.92
        9042    0.9987956     2.083833 -0.0007565185      18280.3
        9043    0.9985349      2.08325 -0.0008607925     18281.82
        9044    0.9982949     2.082364 -0.0007972965     18284.54
        9045    0.9981565     2.081384 -0.000893465     18288.76
        9046    0.9978495     2.080644 -0.000875011     18291.37
        9047    0.9977638     2.079676 -0.000850748     18293.78
        9048     0.997883     2.078864 -0.000792449     18296.06
        9049    0.9983677     2.077981 -0.0008284185     18298.31
        9050    0.9986108     2.077474 -0.0008880485     18298.08
        9051    0.9988479     2.076363 -0.000894966     18299.35
        9052    0.9990339     2.075312 -0.000960829     18302.67
        9053    0.9994389     2.074402 -0.0009289045     18306.49
        9054     0.999571     2.073631 -0.000889752      18309.2
        9055    0.9997453     2.072647 -0.0008062615     18311.23
        9056    0.9998755     2.071753  -0.00085655     18312.45
        9057     0.999826     2.071177 -0.0008808615     18312.94
        9058    0.9996318     2.070205 -0.0008207045     18313.14
        9059    0.9992743     2.069124 -0.0009153295     18314.75
        9060     0.999023      2.06847 -0.000907632     18316.94
        9061    0.9987442     2.067515 -0.0008409205     18317.64
        9062    0.9986423     2.066574 -0.0008382605     18318.74
        9063    0.9985828      2.06576 -0.0008471005     18320.23
        9064    0.9986529     2.065117 -0.000835025     18321.87
        9065    0.9987565     2.064127 -0.0008434025     18323.61
        9066    0.9987657     2.063234 -0.0008662915     18325.66
        9067    0.9988829     2.062386 -0.0008285965     18328.12
        9068    0.9989114     2.061652 -0.000786142     18330.42
        9069    0.9990464     2.060812 -0.0007674985     18333.48
        9070    0.9990996      2.06009 -0.0007966975     18336.29
        9071    0.9990376     2.059316  -0.00077128     18338.72
        9072    0.9988746     2.058465 -0.0008491715     18340.46
        9073    0.9989204     2.057727 -0.000821543     18343.02
        9074    0.9988978     2.056693 -0.0008067085     18344.84
        9075    0.9988509      2.05603 -0.0007981115     18346.95
        9076    0.9988248     2.055238 -0.0007644845     18349.13
        9077    0.9989348     2.054535 -0.000783146     18350.04
        9078    0.9994118     2.053635 -0.0007793135     18352.83
        9079     1.000011     2.052898 -0.000861502     18355.17
        9080     1.000357     2.052121 -0.000843836     18355.43
        9081     1.000628     2.051089 -0.000836645     18355.95
        9082      1.00085      2.05026 -0.000801233     18356.29
        9083     1.001097     2.049551 -0.0007526225     18356.18
        9084     1.001279     2.048916 -0.000747959     18351.94
        9085     1.001711     2.048078 -0.0008170615     18337.56
        9086     1.002201     2.047268 -0.0009092615     18312.72
        9087     1.002616     2.046283 -0.000857068     18294.34
        9088     1.003135     2.045279 -0.000845156     18286.84
        9089     1.003383      2.04465 -0.000776571     18279.93
        9090     1.003568     2.043887 -0.000688126     18254.71
        9091     1.003474     2.043176 -0.000765293     18203.12
        9092     1.003341     2.042526 -0.000580281     18159.05
        9093      1.00359     2.041589  -0.00068453     18070.99
        9094     1.001013     2.041566 -0.0008622705     18055.64
        9095     1.000479     2.040438 -0.000827315     18208.79
        9096     1.002133     2.039077 -0.0008428005     18231.52
        9097     1.002776      2.03828 -0.000804037     18109.61
        9098     1.001177     2.038195 -0.000683238     18097.47
        9099     1.000851     2.037222  -0.00068175        18202
        9100      1.00134     2.036344 -0.0008295335     18283.08
        9101     1.001452     2.035553 -0.0008165745     18303.09
        9102     1.001144     2.034877 -0.0008426705      18323.7
        9103     1.001131     2.033956 -0.000773827     18342.68
        9104     1.001498     2.032974 -0.0007744965     18354.31
        9105     1.002025     2.032457 -0.0008016045     18362.61
        9106     1.002569     2.031779 -0.000709946     18373.53
        9107     1.002858     2.030749 -0.0007847965     18390.26
        9108     1.003066     2.030134 -0.0008212705     18407.36
        9109     1.003219     2.029318 -0.0007550575     18416.97
        9110     1.003165     2.028494 -0.000825761     18422.79
        9111      1.00303     2.027729  -0.00081872      18426.2
        9112     1.002867     2.026831 -0.0007527705     18429.62
        9113     1.002564     2.026043 -0.000793891     18430.59
        9114     1.002549     2.025482 -0.0008003035     18434.72
        9115     1.002526     2.024554 -0.0007207905      18438.9
        9116     1.002326     2.023629 -0.0007974375     18442.81
        9117     1.002202      2.02316 -0.0007957745     18447.31
        9118     1.001828     2.022293 -0.000752169     18449.65
        9119     1.001368     2.021371 -0.0008222085     18451.37
        9120     1.001037     2.020621 -0.000814105     18452.17
        9121     1.001024     2.019871 -0.0007005025     18453.93
        9122      1.00084     2.019036 -0.000742347     18454.04
        9123     1.000584     2.018569 -0.0007388435      18454.1
        9124     1.000585     2.017651 -0.000704022     18456.45
        9125      1.00056     2.016916 -0.000747774     18460.08
        9126     1.000735      2.01622 -0.0006875695     18463.47
        9127     1.000882     2.015577 -0.0006897975      18466.3
        9128     1.000892     2.014901 -0.0007154415     18468.89
        9129     1.000876     2.014157 -0.0006995285     18470.79
        9130     1.001048     2.013358 -0.0006756805     18472.76
        9131     1.001277     2.012779 -0.000625638     18474.64
        9132     1.001526     2.012198 -0.000521375     18475.31
        9133     1.001799     2.011654 -0.0005882425     18477.26
        9134     1.001904     2.011273 -0.000581652     18479.16
        9135     1.001945     2.010426 -0.0005733855      18481.6
        9136     1.002004     2.009872 -0.0005606595     18483.39
        9137     1.001986     2.009361 -0.000516486     18483.46
        9138     1.002078      2.00903 -0.000567704      18483.6
        9139     1.002737      2.00836 -0.0005965835      18484.6
        9140     1.003367     2.007601 -0.000624942     18485.33
        9141     1.003851     2.006974 -0.0005961275     18487.47
        9142     1.003659     2.006531 -0.000503859     18490.95
        9143      1.00328     2.005976 -0.0005093795     18494.16
        9144     1.002866     2.005586 -0.0004322465     18496.56
        9145     1.002872     2.004937 -0.000478712     18499.07
        9146      1.00297     2.004802 -0.0005119895     18500.62
        9147     1.003381     2.004061 -0.0005013885     18501.89
        9148     1.003869     2.003538 -0.000650248     18503.48
        9149     1.004038     2.002931 -0.000503826     18504.42
        9150     1.004036     2.002201 -0.000501796      18505.5
        9151     1.003708     2.002046 -0.0005220275     18506.72
        9152     1.003666      2.00153 -0.0004868765     18507.44
        9153     1.003541     2.000843 -0.0005816455     18508.55
        9154      1.00354     2.000253 -0.000595861     18511.23
        9155     1.003509     1.999719 -0.0004813915     18512.88
        9156     1.003236     1.999147 -0.000559703     18513.96
        9157     1.003062     1.998918 -0.0005134985     18515.29
        9158     1.003106     1.998014 -0.000572657     18517.28
        9159     1.003042     1.997665 -0.0007001645     18519.45
        9160     1.002932     1.996856 -0.000613805     18521.65
        9161     1.003041     1.996117 -0.000647981     18524.84
        9162     1.002775     1.995559 -0.000595393     18527.55
        9163     1.002492     1.995073  -0.00056415      18529.5
        9164     1.002566     1.994475 -0.0005823425     18532.47
        9165     1.002334      1.99386 -0.000661849     18534.97
        9166     1.001845      1.99323 -0.000617997     18536.31
        9167     1.001064     1.992426 -0.000674393     18537.11
        9168     1.000386     1.992003 -0.0007055005     18539.21
        9169     1.000023     1.991163 -0.0006445045     18543.04
        9170    0.9997611     1.990408 -0.000747881     18545.66
        9171    0.9995571     1.989848 -0.000736319     18547.83
        9172    0.9995499     1.989011 -0.000676861     18549.41
        9173    0.9995181     1.988217 -0.0006998625     18549.49
        9174    0.9996193       1.9877 -0.000712065     18549.45
        9175    0.9997989     1.987048 -0.000630281     18550.37
        9176     1.000091     1.986163 -0.0006917895     18551.98
        9177     1.000121     1.985696 -0.000762939     18552.32
        9178     1.000299     1.984933 -0.0006820275     18552.83
        9179      1.00044     1.983997 -0.000793161     18552.77
        9180     1.000685     1.983435 -0.0007385075        18554
        9181     1.000609     1.982524 -0.0006294645     18555.19
        9182      1.00047     1.981979 -0.000645484     18556.05
        9183     1.000385     1.981479 -0.0006461875     18556.15
        9184     1.000588     1.980853 -0.000616888     18557.47
        9185     1.000666     1.979939 -0.0006514145     18559.69
        9186     1.000728     1.979511 -0.000651194     18561.73
        9187      1.00065     1.978873 -0.0005769645     18562.64
        9188     1.000823     1.978248 -0.0006043015     18564.89
        9189     1.000875     1.977631 -0.000650962     18565.44
        9190     1.000869     1.977094 -0.0006183985     18565.41
        9191     1.000553     1.976269 -0.0005912595      18566.7
        9192     1.000255     1.975775 -0.000609862     18569.36
        9193     1.000164     1.975266 -0.0006457055     18572.43
        9194     1.000081     1.974655 -0.000639644     18573.86
        9195     1.000099     1.973686 -0.0006317375     18573.97
        9196     1.000173     1.973216 -0.0006567475     18575.64
        9197    0.9999127     1.972739 -0.0005947555     18575.27
        9198    0.9997747     1.972028 -0.0006234655     18575.45
        9199    0.9998374     1.971307 -0.000675977     18577.66
        9200       1.0001     1.970722 -0.0006520485     18580.03
        9201     1.000252     1.970035 -0.0006565435     18581.53
        9202     1.000751      1.96942 -0.000687115     18582.88
        9203      1.00126     1.968681 -0.0007005155     18584.05
        9204     1.001604     1.967974 -0.0006545665     18585.66
        9205     1.002004     1.967233 -0.0006422645     18587.06
        9206     1.002153     1.966801 -0.0006227675     18588.08
        9207     1.002248     1.966112 -0.0006194145     18588.82
        9208     1.002332     1.965483 -0.0006793325     18589.67
        9209     1.002228     1.964755 -0.0006660935      18592.7
        9210     1.002297     1.964084 -0.0006488015     18596.33
        9211     1.002627     1.963448 -0.000674292     18598.75
        9212     1.002835     1.962887 -0.000703398     18600.99
        9213      1.00309     1.962058 -0.0007041695     18601.82
        9214     1.003229      1.96127 -0.000734355     18602.21
        9215     1.003167     1.960631 -0.000740302     18603.77
        9216     1.003005      1.95995 -0.000693139     18605.92
        9217     1.002986     1.959097 -0.000689346     18607.48
        9218     1.002968     1.958498 -0.0007230105     18608.49
        9219     1.002799     1.957874 -0.000684733     18608.85
        9220     1.002828     1.957058 -0.0007752435     18610.28
        9221     1.002754     1.956358 -0.000812067     18611.72
        9222     1.002723     1.955397 -0.0007567005     18614.26
        9223     1.002563     1.954626 -0.0007926115     18615.48
        9224      1.00245     1.954031 -0.000705909     18616.67
        9225     1.002339     1.953188 -0.000693113        18618
        9226     1.002299     1.952573 -0.0007147255     18620.26
        9227     1.002557     1.951853 -0.0007295825     18621.87
        9228     1.002816     1.951172 -0.000780812     18623.71
        9229     1.002958     1.950269  -0.00078693     18626.31
        9230     1.002812      1.94945 -0.0007216125     18626.76
        9231     1.003006     1.948705  -0.00067239      18627.6
        9232     1.003304     1.948286 -0.0006433295     18627.69
        9233      1.00333      1.94758 -0.000648907      18627.8
        9234     1.003348     1.946877 -0.0007723295     18628.47
        9235     1.003165      1.94611 -0.000737447     18627.95
        9236     1.002964     1.945196 -0.000735251     18629.11
        9237     1.002448      1.94463 -0.0007157025     18630.41
        9238     1.002252     1.943936 -0.0006246435     18631.61
        9239      1.00216     1.943247 -0.0006757915     18632.88
        9240     1.001956     1.942698 -0.0007170605     18634.05
        9241     1.001802     1.941927 -0.0006958185     18635.76
        9242     1.001879     1.941067 -0.000756271     18637.38
        9243     1.001935     1.940464 -0.000734349     18637.89
        9244     1.001914     1.939673 -0.000689825     18636.42
        9245     1.001381     1.938989 -0.0007060995     18634.54
        9246     1.000941     1.938308  -0.00065298     18633.76
        9247     1.000757     1.937639 -0.0007010025     18630.65
        9248     1.000555     1.937061 -0.0007583295     18620.64
        9249     1.001167     1.936185 -0.0006327245     18579.92
        9250      1.00178     1.935275 -0.000685428     18466.83
        9251     1.000203     1.935108 -0.0006908825     18400.33
        9252    0.9994553     1.934319 -0.0006765325      18512.4
        9253     1.000157     1.933422 -0.000661704     18576.38
        9254     1.001238     1.932569 -0.000637245     18508.47
        9255      1.00045     1.932462 -0.000606233     18418.58
        9256    0.9998146      1.93177 -0.0005587045     18509.65
        9257    0.9999394     1.930997 -0.0007094905     18608.99
        9258     1.000411     1.930334 -0.000675568     18655.55
        9259     1.000725     1.929624 -0.000702976     18665.67
        9260      1.00095     1.929068 -0.0006951935     18669.02
        9261     1.000997     1.928185 -0.0007102075     18672.73
        9262     1.000696     1.927553 -0.000724743     18674.64
        9263     1.000646     1.926783 -0.000621975     18676.37
        9264     1.000726     1.926169 -0.0006812815     18677.81
        9265     1.000809     1.925697 -0.000742532     18679.31
        9266     1.000932     1.924828 -0.0007205785     18679.87
        9267     1.000606     1.923813 -0.0007300675     18677.95
        9268     1.000268     1.923287 -0.0006893495     18678.78
        9269     1.000011     1.922777 -0.000577249     18680.29
        9270     1.000288     1.922071 -0.000657451     18682.09
        9271     1.000459     1.921504 -0.0007051045     18683.08
        9272     1.000443     1.920657 -0.0006650765     18684.59
        9273     1.000654     1.919956  -0.00064654     18688.18
        9274     1.000484      1.91941 -0.0005751615     18689.67
        9275     1.000313     1.918917 -0.0005789065     18689.59
        9276    0.9999451     1.918356 -0.0006266495     18688.66
        9277    0.9994825     1.917641 -0.000634537     18690.04
        9278    0.9992722     1.916904 -0.0006870725     18692.46
        9279    0.9991264     1.916379 -0.000681061     18693.87
        9280    0.9990742     1.915608 -0.000647133     18695.09
        9281    0.9990187     1.914917 -0.000615391     18695.83
        9282    0.9992953     1.914315 -0.0005747855     18697.64
        9283    0.9994116     1.913918 -0.000579531     18697.44
        9284    0.9996182     1.913309  -0.00054851     18698.81
        9285    0.9998147     1.912598 -0.0006410105     18700.72
        9286    0.9998309     1.912121 -0.000656833     18702.59
        9287     1.000063     1.911354 -0.0005746115     18704.26
        9288      1.00022     1.910681 -0.000625696     18705.24
        9289     1.000109       1.9103 -0.0005250655     18706.21
        9290     1.000143     1.909618 -0.000508416      18706.7
        9291     1.000004     1.909253 -0.0006215925     18707.09
        9292    0.9997708     1.908648 -0.000604022     18707.85
        9293    0.9996544     1.907814 -0.000621026     18708.52
        9294     0.999742     1.907202 -0.0006087565     18709.97
        9295     1.000126     1.906769 -0.0005833025     18712.02
        9296      1.00063     1.906213 -0.0005647255     18713.03
        9297     1.000896      1.90548 -0.000619745     18713.55
        9298     1.000825     1.904943 -0.000633639     18715.14
        9299     1.000634      1.90429 -0.0005709665     18717.24
        9300     1.000679     1.903678 -0.0005431035     18718.69
        9301     1.000943     1.903197 -0.000507627     18719.47
        9302     1.001313     1.902771 -0.0005018985     18720.87
        9303     1.001424      1.90226 -0.0005132365     18720.85
        9304     1.001465     1.901671 -0.000555804     18721.24
        9305     1.001514     1.901144  -0.00058442     18720.82
        9306     1.001715     1.900548 -0.000574495     18721.78
        9307     1.001883     1.899922 -0.000588772     18722.96
        9308     1.001796     1.899373 -0.000586123     18723.45
        9309     1.001613     1.898789 -0.0005708945     18724.55
        9310     1.001441     1.898203  -0.00057706     18725.53
        9311     1.001227     1.897639 -0.0005750525     18725.32
        9312     1.000936     1.897064 -0.000561681     18725.67
        9313      1.00085     1.896488 -0.000573678     18726.72
        9314     1.001129     1.895957 -0.0005608165     18728.63
        9315     1.001397     1.895344 -0.000559506     18729.43
        9316     1.001359     1.894821 -0.000570202      18730.8
        9317     1.001375      1.89425 -0.0005773475     18732.65
        9318     1.001542     1.893676 -0.0006075085     18735.99
        9319      1.00155     1.893034 -0.000572146      18737.4
        9320     1.001392     1.892391 -0.0005574275     18736.56
        9321     1.001305     1.891962 -0.000554379     18735.06
        9322     1.001239     1.891446 -0.0005694755     18734.01
        9323     1.001403     1.890817 -0.0006136025     18734.66
        9324     1.001529     1.890113 -0.000631727     18735.35
        9325     1.001534     1.889507 -0.000623137     18737.29
        9326     1.001428     1.888919 -0.000607082      18739.2
        9327     1.001176     1.888324 -0.000591195     18741.52
        9328      1.00091     1.887685 -0.000603816     18742.51
        9329      1.00038     1.887143 -0.000625364     18743.32
        9330     1.000251     1.886504 -0.000628333     18745.55
        9331     1.000578     1.885823 -0.000698643        18747
        9332     1.001012     1.885172 -0.000592635     18746.16
        9333     1.001213     1.884348 -0.0005585055     18744.75
        9334     1.001283     1.884133 -0.0005421595     18745.68
        9335     1.001445     1.883589 -0.000500646     18748.67
        9336     1.001768     1.883003 -0.0005919275      18751.4
        9337     1.002244     1.882345 -0.0006309135     18754.12
        9338      1.00267     1.881766 -0.000634749     18754.72
        9339     1.002898     1.881065 -0.000622483     18753.92
        9340     1.002738     1.880464 -0.000640142     18753.18
        9341     1.002445     1.879855 -0.0005947315     18752.97
        9342     1.001942     1.879205 -0.0005734125     18752.73
        9343     1.001342     1.878686 -0.0005882545      18753.8
        9344     1.000883      1.87817 -0.000612625     18755.08
        9345     1.000688     1.877502 -0.000603175     18755.43
        9346      1.00074     1.876755 -0.0006013355      18756.4
        9347     1.000685     1.876274 -0.000576032     18757.33
        9348      1.00066     1.875765 -0.0005328105     18758.09
        9349     1.000667     1.875198 -0.000572059     18757.34
        9350     1.000522     1.874623 -0.0005829785     18753.51
        9351     1.000348     1.873985 -0.000608759      18750.2
        9352     1.000286     1.873433 -0.000653598     18753.28
        9353     1.000435     1.872763 -0.000654845     18756.02
        9354     1.000599     1.872009 -0.0006503345     18757.08
        9355     1.000829     1.871366 -0.0006509605     18759.36
        9356     1.000861     1.870832 -0.000583701     18763.07
        9357     1.001078     1.870159   -0.0005503      18767.4
        9358     1.001315     1.869674 -0.000637914     18769.34
        9359     1.001429     1.869165 -0.000664198     18768.75
        9360     1.001396      1.86828 -0.000710711     18767.19
        9361     1.001461     1.867503 -0.000680008     18765.67
        9362     1.001377     1.866831 -0.0006065705      18762.2
        9363     1.001455     1.866445 -0.000557901     18762.36
        9364     1.001959     1.865854 -0.000528308     18764.98
        9365     1.002345     1.865271 -0.0005842095     18765.55
        9366     1.002616     1.864718 -0.0005941115     18766.51
        9367     1.002797     1.864108 -0.0005862535     18770.56
        9368     1.002833     1.863477 -0.0006002645     18774.83
        9369     1.002718     1.862926 -0.0006652005     18776.89
        9370      1.00265     1.862317 -0.0006141205     18778.35
        9371     1.002463     1.861447 -0.000593508     18780.03
        9372     1.002125     1.861021 -0.000617086     18780.93
        9373     1.001836     1.860552 -0.0005467385     18781.22
        9374     1.001656     1.859849 -0.000553294     18780.22
        9375     1.001388      1.85926 -0.0006294375      18779.7
        9376     1.001272     1.858808  -0.00059638     18779.67
        9377     1.001419     1.858034 -0.000566327     18780.82
        9378     1.001346     1.857463 -0.000634804     18781.93
        9379     1.001143     1.856995  -0.00062322     18784.25
        9380     1.001046     1.856268 -0.000612287     18785.44
        9381     1.001068     1.855541 -0.0006789035     18785.08
        9382     1.001423     1.855014 -0.0005930025     18786.01
        9383     1.001949     1.854279 -0.000569207     18786.38
        9384     1.002282     1.853896 -0.000607566      18788.3
        9385     1.002094     1.853265 -0.000594425      18789.4
        9386      1.00174     1.852584 -0.000676784     18790.22
        9387     1.001507     1.851902 -0.000639632     18790.75
        9388     1.001415     1.851189 -0.0005877555     18792.02
        9389     1.001435     1.850706   -0.0006046     18791.64
        9390     1.001228     1.850233 -0.000543344      18791.4
        9391     1.000853     1.849483 -0.0005466005     18790.42
        9392     1.000579     1.849016 -0.0005600765     18789.12
        9393     1.000516      1.84852 -0.0005882565     18788.63
        9394     1.000592     1.847992 -0.000564631     18788.69
        9395     1.000842      1.84713 -0.000643607     18789.83
        9396      1.00097     1.846757 -0.0006693225     18790.86
        9397     1.001006     1.845945 -0.000663196     18790.58
        9398     1.000971     1.845315 -0.000715534     18791.49
        9399     1.000746     1.844477 -0.0006740175     18793.31
        9400     1.000281     1.843895 -0.0006436245     18794.73
        9401    0.9999073     1.843249 -0.000567066     18793.94
        9402    0.9997016     1.842741  -0.00059012     18793.66
        9403    0.9994899     1.842209 -0.000592283     18795.29
        9404    0.9994893     1.841535 -0.000567607     18796.27
        9405    0.9994068      1.84088 -0.0005848595     18797.46
        9406    0.9993608      1.84047 -0.0005455505     18798.84
        9407    0.9994764      1.83987 -0.000568341      18799.6
        9408     0.999604     1.839353 -0.000601146     18798.48
        9409    0.9999334     1.838607 -0.0006115825     18798.45
        9410     1.000307     1.838066 -0.000668408      18800.3
        9411     1.000527     1.837423 -0.0006412195     18801.09
        9412     1.000762     1.836679 -0.0006865265     18801.09
        9413     1.000913     1.836042 -0.000692138     18803.18
        9414      1.00087     1.835319 -0.000579883     18804.22
        9415     1.000856     1.834655 -0.0006124615     18804.74
        9416     1.000934     1.834359 -0.0005786575     18804.86
        9417     1.000834     1.833592 -0.000567495     18804.37
        9418     1.000478     1.833005 -0.0006421075     18802.58
        9419     1.000486     1.832385 -0.0006154895     18802.34
        9420     1.000567     1.831791 -0.000634285     18802.01
        9421     1.000553      1.83113 -0.000652376     18800.69
        9422     1.000659     1.830468 -0.000596715     18800.08
        9423     1.000743     1.829775 -0.0006239905     18800.32
        9424     1.000578     1.829404 -0.0005928415      18799.9
        9425     1.000129     1.828634 -0.0005738975     18800.39
        9426    0.9998347     1.828096 -0.0006671935     18800.39
        9427    0.9996242      1.82748 -0.000656051     18800.55
        9428    0.9994201     1.826735 -0.000649377     18800.95
        9429    0.9989477      1.82601 -0.000633313     18799.27
        9430    0.9986727     1.825499 -0.000624774     18799.47
        9431    0.9987508     1.824946 -0.000587343     18800.53
        9432     0.998956     1.824236 -0.000600873     18801.35
        9433     0.999038      1.82366 -0.000617368      18802.4
        9434    0.9990756     1.823095 -0.0005533505     18803.18
        9435    0.9992082     1.822477 -0.0005734235     18802.35
        9436    0.9995678     1.822023 -0.000624156      18802.5
        9437     0.999776     1.821367 -0.000591205     18801.84
        9438      1.00013     1.820599 -0.000620047     18802.02
        9439      1.00021     1.820112 -0.0005804975     18802.13
        9440     1.000231     1.819543 -0.0006149605     18801.61
        9441    0.9999581     1.819045 -0.0005810915     18801.92
        9442    0.9994861     1.818139 -0.000612677     18802.34
        9443     0.999083     1.817788 -0.0006339665     18800.94
        9444    0.9991694     1.817092 -0.0005785425     18800.64
        9445    0.9990775     1.816509 -0.000611065        18800
        9446    0.9989917     1.815825 -0.0006244065     18800.93
        9447    0.9985785     1.815344 -0.0005704245     18801.97
        9448    0.9982513     1.814594 -0.000587364     18802.52
        9449    0.9980604     1.814227 -0.0006258205      18802.7
        9450    0.9981515     1.813475 -0.000551009     18801.55
        9451    0.9981958      1.81284 -0.0006499835     18800.46
        9452    0.9982805      1.81239 -0.000578674     18800.28
        9453    0.9984261     1.811627  -0.00056442     18799.71
        9454    0.9985281     1.811161 -0.0005843595     18798.68
        9455    0.9983862     1.810583 -0.0005361065     18799.37
        9456    0.9982029     1.810053 -0.000635027     18798.39
        9457    0.9980424     1.809483 -0.000591924     18797.36
        9458    0.9980351      1.80862 -0.0005668455     18796.72
        9459    0.9980738     1.808215 -0.0005880335     18796.42
        9460    0.9979799     1.807785 -0.000503132     18797.49
        9461    0.9975616     1.807131 -0.0005141215     18798.46
        9462    0.9971303     1.806608 -0.000602385     18800.41
        9463    0.9968781     1.806158 -0.0006070295     18801.39
        9464    0.9968419     1.805376 -0.000566438      18801.9
        9465    0.9967655     1.804703 -0.000579294     18802.03
        9466    0.9966201     1.804342 -0.000563288     18803.42
        9467    0.9964999     1.803841 -0.000519347     18804.04
        9468    0.9963197     1.803123 -0.000598069     18803.83
        9469    0.9960855     1.802625 -0.000555627     18803.42
        9470    0.9958482      1.80195  -0.00052706     18802.75
        9471    0.9956779     1.801619 -0.000587018     18802.44
        9472    0.9957769     1.801014 -0.000530646      18802.3
        9473    0.9958861     1.800277 -0.000580302     18800.67
        9474    0.9960066     1.799827 -0.000585945      18800.3
        9475    0.9958387     1.799298 -0.0005151465     18798.77
        9476    0.9955906     1.798671 -0.0005716345     18797.19
        9477    0.9955645     1.798216 -0.000588256     18797.52
        9478    0.9956754     1.797541 -0.0005664065     18797.84
        9479    0.9956575     1.796944 -0.000556504     18797.05
        9480    0.9956417     1.796405 -0.000526542     18797.25
        9481    0.9958583      1.79599 -0.0005573985        18797
        9482    0.9961298     1.795435 -0.000538289     18795.39
        9483    0.9960847     1.794715  -0.00059383     18791.31
        9484    0.9957475     1.794252 -0.0005519045     18782.29
        9485    0.9957465     1.793615 -0.0005211375      18763.8
        9486    0.9956785     1.793227 -0.000516879     18754.66
        9487    0.9958062      1.79263 -0.0005343145     18761.91
        9488     0.995936     1.792184 -0.0005470515     18771.63
        9489    0.9958504     1.791478 -0.0005803645     18779.77
        9490    0.9957889     1.791039 -0.0006229535      18781.5
        9491    0.9959364     1.790309 -0.000542775     18772.05
        9492    0.9961097     1.789693 -0.0005380365     18754.92
        9493    0.9959899     1.789307  -0.00055911     18752.51
        9494    0.9959372     1.788887 -0.000539327      18760.1
        9495    0.9960035     1.788072 -0.000576196     18770.91
        9496    0.9956225     1.787535 -0.0006161905     18780.13
        9497    0.9952798     1.787002 -0.000560806     18781.99
        9498    0.9953303     1.786422 -0.000558817     18781.53
        9499    0.9954533     1.785829 -0.000557142     18780.44
        9500    0.9954533     1.785829 -0.000557142     18780.44
